time division length width area intensity CMx CMy
0 0 35.055 11.6103 407 166.413 132.45 473.631
1 0 33.063 11.5537 382 170.435 132.874 473.131
2 0 36.0323 11.9892 432 167.266 132.551 472.495
3 0 39.0529 12.0606 471 162.418 132.728 473.493
4 0 38.0403 12.0924 460 165.815 132.733 471.715
5 0 39.0157 12.2515 478 165.617 132.948 472.157
6 0 40.0164 11.5952 464 166.631 132.709 471.616
7 0 41.0472 13.1556 540 162.381 132.489 470.819
8 0 41.0349 12.6478 519 164.582 131.617 471.763
9 0 44.0252 13.0607 575 160.83 131.73 470.617
10 0 44.0465 13.5766 598 161.507 131.391 470.047
11 0 46.0603 12.9613 597 161.059 131.415 471.24
12 0 46.0308 13.2086 608 161.88 130.791 469.824
13 0 49.0617 14.0028 687 157.683 131.186 469.419
14 0 49.0954 13.0766 642 161.528 130.799 468.715
15 0 52.1406 13.8472 722 155.373 130.55 469.781
16 0 53.0146 13.7321 728 156.141 131.026 469.451
17 0 55.0461 13.8611 763 153.913 131.216 469.801
18 0 56.0115 14.2471 798 153.425 130.912 467.846
19 0 60.123 15.0858 907 147.058 130.729 467.585
20 0 61.0671 14.6888 897 150.43 129.87 466.031
21 0 61.0456 14.4974 885 152.786 130.237 467.985
22 0 63.0545 15.9227 1004 147.524 129.858 465.552
23 0 66.0703 15.3927 1017 148.693 129.977 465.66
24 0 66.0446 15.3684 1015 151.043 129.272 462.81
25 0 70.0524 15.8596 1111 148.633 129.804 462.122
26 0 74.093 15.0487 1115 150.921 129.728 461.139
27 0 76.092 15.2184 1158 152.126 129.626 458.847
28 0 79.0682 17.3395 1371 142.786 129.867 457.821
29 0 84.1389 16.758 1410 143.784 129.426 457.694
30 1 40.1834 12.7913 514 153.65 129.825 477.072
31 0 39.1656 11.3875 446 155.641 129.626 474.8
32 0 41.0741 11.6375 478 147.826 129.912 474.362
33 0 44.0246 11.9479 526 146.39 129.66 476.01
34 0 43.0211 13.412 577 151.13 130.208 475.499
35 0 45.0768 13.8652 625 146.267 130.038 476.459
36 0 44.083 12.8848 568 153.324 130.093 475.345
37 0 49.0524 13.0065 638 147.034 129.712 475.404
38 0 49.0319 13.1751 646 148.61 129.511 474.118
39 0 50.0898 13.935 698 145.871 128.934 473.467
40 0 55.0683 13.9281 767 143.257 129.674 471.845
41 0 54.017 14.0881 761 145.359 129.771 471.34
42 0 57.1026 14.0449 802 145.414 129.439 470.127
43 0 57.0481 13.3221 760 149.289 129.501 469.22
44 0 61.0429 15.1205 923 140.893 129.13 468.804
45 0 63.1457 14.3953 909 143.05 128.957 468.041
46 0 64.0448 14.1932 909 144.969 129.025 466.811
47 0 68.0806 15.3641 1046 139.157 129.085 466.328
48 0 68.0683 14.9996 1021 143.586 129.059 464.95
49 0 73.0958 15.0214 1098 140.508 128.457 464.39
50 0 75.0649 14.5741 1094 141.797 127.904 463.913
51 0 78.0927 15.7889 1233 136.988 127.67 461.028
52 0 81.0793 15.0593 1221 139.562 127.776 459.709
53 0 84.0935 14.8287 1247 139.435 127.727 458.47
54 0 85.1026 14.8409 1263 140.42 127.222 457.394
55 0 89.1315 14.574 1299 140.026 127.29 455.136
56 1 46.0976 12.4518 574 140.413 127.862 476.571
57 0 47.2368 13.6546 645 135.86 128.095 474.527
58 0 51.1403 13.2381 677 134.815 128.196 476.17
59 0 53.0694 12.7946 679 135.9 128.289 475.791
60 0 52.15 12.8284 669 136.646 128.23 474.961
61 0 53.1337 13.3625 710 135.834 127.469 474.055
62 0 58.1594 13.9101 809 131.764 126.951 472.731
63 0 61.0904 14.7323 900 129.739 127.266 472.162
64 0 61.1429 13.8691 848 133.04 126.704 470.139
65 0 64.0811 15.4336 989 126.553 127.437 470.308
66 0 66.0967 14.5242 960 129.157 127.726 469.704
67 0 68.0396 14.3887 979 129.822 127.066 469.392
68 0 67.174 13.6958 920 133.839 127.425 466.742
69 0 72.0607 13.1001 944 132.213 127.107 467.268
70 0 74.0662 13.4609 997 132.537 127.463 464.293
71 0 78.1002 14.3533 1121 128.736 127.18 463.514
72 0 79.0624 13.4577 1064 131.637 127.016 462.484
73 0 82.0346 14.2867 1172 129.182 127.178 457.533
74 0 85.1037 13.5834 1156 129.406 127.061 459.457
75 0 88.1317 13.1962 1163 128.951 126.954 458.089
76 1 47.218 11.9869 566 125.224 128.299 477.293
77 0 48.2546 13.2422 639 126.094 128.352 473.606
78 0 51.0913 11.7241 599 129.918 126.828 476.758
79 0 53.0566 11.4029 605 130.435 126.463 476.278
80 0 56.0698 12.7698 716 125.025 126.124 474.457
81 0 57.0522 12.7602 728 123.6 126.401 474.297
82 0 59.1031 12.5036 739 123.854 125.954 472.272
83 0 62.0726 13.1459 816 121.721 126.353 470.227
84 0 63.1004 13.0586 824 124.225 127.727 469.093
85 0 65.0331 12.7012 826 123.535 126.306 469.006
86 0 69.0967 13.3436 922 121.26 126.317 467.766
87 0 70.1761 12.5399 880 123.918 126.486 467.498
88 0 74.2307 13.2425 983 121.601 126.457 466.308
89 0 76.1129 14.0975 1073 119.853 126.426 464.935
90 0 77.2632 12.8263 991 124.291 126.569 464.363
91 1 43.0309 11.5963 499 120.17 127.443 480.992
92 0 41.0796 11.5872 476 122.733 127.252 479.874
93 0 46.1341 13.4824 622 114.114 126.728 480.752
94 0 45.0499 12.4085 559 113.472 126.803 480.154
95 0 48.0138 13.7252 659 108.103 126.806 479.677
96 0 47.0498 12.6249 594 112.833 125.094 479.175
97 0 49.0525 12.6803 622 113.986 127.328 476.923
98 0 50.0963 12.8752 645 114.15 127.45 478.75
99 0 52.0648 12.1195 631 116.176 127.802 476.412
100 0 54.0533 12.7837 691 114.357 126.957 476.075
101 0 54.059 12.0794 653 117.309 127.1 475.683
102 0 58.0164 11.9449 693 116.821 127.147 475.079
103 0 59.0393 12.7034 750 115.295 126.603 474.136
104 0 59.0631 12.3766 731 117.119 126.944 473.551
105 0 62.105 12.656 786 115.898 127.542 472.738
106 0 64.0759 13.2811 851 114.193 126.746 471.237
107 0 65.0304 12.7018 826 116.462 126.734 469.705
108 0 66.0234 11.9806 791 118.654 125.936 467.23
109 0 69.0779 13.3473 922 115.625 126.408 466.605
110 0 73.0733 13.288 971 115.769 126.351 464.504
111 0 76.113 12.823 976 115.968 126.323 464.86
112 0 77.1226 12.318 950 118.034 126.241 463.242
113 0 79.2145 12.0685 956 118.589 126.616 462.679
114 0 85.1476 13.8583 1180 113.347 126.767 460.283
115 0 87.1792 13.9139 1213 114.613 126.614 456.818
116 0 89.1392 12.9348 1153 116.983 126.538 455.283
117 0 94.0986 13.6134 1281 113.647 126.734 455.499
118 1 46.0157 11.5178 530 115.811 127.819 477.117
119 0 48.0288 12.7007 610 112.644 127.352 474.949
120 0 48.0249 10.7652 517 109.234 126.71 472.723
121 0 46.1106 9.8459 454 112.643 126.361 471.3
122 0 48.0205 10.5788 508 110.72 126.593 469.262
123 0 53.0518 12.026 638 106.434 126.466 469.892
124 0 53.0832 11.0958 589 108.716 127.205 469.154
125 0 56.0546 11.1142 623 108.952 126.233 467.082
126 0 57.0104 11.3488 647 108.388 126.085 466.903
127 0 58.0421 12.7149 738 104.808 126.142 467.894
128 0 62.1452 11.972 744 105.543 126.905 465.235
129 0 65.0769 11.9397 777 106.041 126.553 463.225
130 0 66.0625 10.0057 661 110.401 126.964 462.876
131 0 68.1154 11.275 768 107.241 126.184 460.971
132 0 72.0371 11.1193 801 106.617 126.466 461.743
133 0 73.1461 10.5816 774 107.885 125.978 458.925
134 0 76.0559 11.3732 865 105.961 126.637 456.092
135 0 78.2643 11.3845 891 106.973 126.085 456.084
136 0 81.1163 10.1706 825 108.55 126.359 456.912
137 0 85.2051 11.4078 972 105.903 125.952 454.885
138 0 87.2253 11.4302 997 106.584 126.248 452.004
139 1 49.133 9.78976 481 100.05 126.173 473.518
140 0 52.0864 11.6537 607 108.397 126.036 474.321
141 0 54.0585 12.172 658 106.695 125.381 470.628
142 0 54.0444 11.435 618 106.252 125.662 475.625
143 0 54.1136 11.9194 645 106.045 125.957 474.429
144 0 57.0921 11.3501 648 107.929 125.821 472.222
145 0 60.0805 11.4347 687 106.601 126.715 472.112
146 0 61.1059 12.7811 781 105.198 125.908 470.055
147 0 62.0976 11.5141 715 108.717 126.087 469.541
148 0 65.1389 11.4064 743 107.847 126.717 469.751
149 0 67.1423 11.3639 763 108.616 126.336 468.494
150 0 72.1429 13.3069 960 103.878 126.51 466.776
151 0 72.078 12.2506 883 107.334 126.109 464.445
152 0 76.0704 11.4368 870 106.383 126.094 462.955
153 0 79.1088 10.7068 847 107.501 127.378 462.845
154 0 81.1105 10.9973 892 106.919 127.734 460.23
155 0 85.1517 12.3779 1054 103.878 126.465 458.993
156 0 85.1125 11.0325 939 106.518 126.88 459.4
157 1 43.0203 10.9948 473 105.144 126.937 479.317
158 0 45.0123 11.0859 499 105.196 126.381 478.377
159 0 46.0139 11.3227 521 105.472 125.931 477.221
160 0 45.0177 12.0841 544 105.688 126.801 477.702
161 0 45.0104 10.8642 489 109.276 126.826 477.399
162 0 48.0604 10.7781 518 109.459 126.876 476.133
163 0 50.0303 12.2126 611 106.401 126.3 475.506
164 0 51.0162 11.2513 574 109.733 126.524 474.169
165 0 53.0456 12.8946 684 105.547 126.833 474.345
166 0 55.0506 13.424 739 104.817 126.802 473.502
167 0 53.0323 12.4264 659 109.071 127.637 473.728
168 0 55.0922 10.7638 593 113.619 127.295 472.988
169 0 59.1102 11.9945 709 109.901 127.588 472.643
170 0 62.1105 12.4295 772 109.915 127.479 470.518
171 0 64.045 12.6317 809 108.559 126.786 470.423
172 0 65.085 13.4439 875 108.409 126.723 470.427
173 0 68.0784 12.6913 864 111.045 126.638 468.503
174 0 69.2075 13.3656 925 111.243 126.61 466
175 0 72.1919 13.8797 1002 110.152 126.654 465.276
176 0 72.1308 12.8655 928 115.322 126.532 465.886
177 0 77.0968 13.5155 1042 113.33 126.379 464.068
178 0 79.0867 13.0237 1030 114.907 126.831 461.966
179 0 82.1264 14.1854 1165 113.076 125.788 461.707
180 0 83.168 14.14 1176 113.241 125.856 460.262
181 0 86.1087 13.483 1161 115.967 127.08 458.542
182 0 88.1688 13.3721 1179 115.825 125.962 457.514
183 0 91.1641 14.0625 1282 114.782 126.318 455.863
184 0 95.1379 13.3806 1273 116.324 126.042 454.925
185 0 99.1347 13.7389 1362 115.729 126.558 453.733
186 1 50.0445 12.1292 607 115.514 126.967 478.119
187 0 50.0892 12.1982 611 117.357 126.864 475.939
188 0 52.0866 12.8824 671 114.645 126.818 475.179
189 0 53.1959 12.8393 683 114.272 126.959 475.035
190 0 55.0864 12.5984 694 116.275 126.519 473.333
191 0 56.0814 11.8756 666 118.607 126.704 473.164
192 0 59.0999 12.3858 732 116.238 126.544 471.602
193 0 61.0495 12.3834 756 115.75 126.72 471.337
194 0 63.1867 13.3098 841 112.176 126.653 471.134
195 0 64.0763 12.7972 820 114.713 126.523 468.729
196 0 64.0495 13.1617 843 115.368 126.223 467.771
197 0 68.1496 13.2062 900 114.166 126.567 466.612
198 0 71.1199 14.2857 1016 111.363 126.259 466.685
199 0 72.0687 13.4039 966 115.027 126.356 466.178
200 0 76.0765 13.2104 1005 116.176 126.008 463.782
201 0 76.0588 13.4896 1026 117.421 125.682 463.211
202 0 79.0974 12.984 1027 118.911 125.572 463.123
203 0 82.0758 13.2438 1087 118.255 125.709 461.217
204 0 85.0535 13.7443 1169 117.604 125.964 459.096
205 0 89.091 14.2102 1266 116.643 125.413 457.731
206 0 91.1092 14.2357 1297 117.324 124.803 455.147
207 0 93.1148 13.5961 1266 117.891 124.643 454.697
208 0 96.2072 13.4709 1296 116.927 124.772 455.418
209 0 99.0668 13.8997 1377 117.38 124.994 453.201
210 1 52.0343 11.4732 597 120.39 125.266 476.285
211 0 55.0483 12.7161 700 119.497 126.233 473.133
212 0 55.175 12.4332 686 119.571 126.418 471.962
213 0 56.1391 13.0569 733 116.874 125.701 472.599
214 0 60.064 14.4845 870 111.361 125.7 471.911
215 0 62.0918 13.0452 810 115.573 125.558 470.942
216 0 62.0588 12.9071 801 114.9 126.383 471.423
217 0 64.0778 13.3432 855 114.216 126.004 467.972
218 0 67.0642 13.8375 928 111.872 126.452 468.391
219 0 69.1009 13.3717 924 113.784 125.788 466.498
220 0 70.076 13.6566 957 113.394 125.688 467.033
221 0 72.0843 12.8322 925 116.436 125.923 467.188
222 0 75.1008 13.0358 979 115.176 125.06 463.226
223 0 78.0723 14.4097 1125 111.718 124.896 462.875
224 0 81.0954 13.256 1075 114.806 125.812 460.85
225 0 81.1171 13.462 1092 115.449 125.42 460.294
226 0 85.0657 13.2603 1128 115.015 125.571 457.389
227 0 89.0634 13.8778 1236 113.387 125.461 457.372
228 0 92.1085 13.9727 1287 113.54 125.18 455.034
229 0 92.1206 13.135 1210 116.196 125.687 454.922
230 0 96.0702 12.5013 1201 117.575 125.389 452.247
231 0 97.1529 11.7032 1137 118.773 125.131 453.317
232 1 53.0349 12.1618 645 118.991 124.85 473.091
233 0 54.1085 13.6577 739 115.922 127.246 472.261
234 0 55.0385 11.8644 653 121.357 127.573 470.951
235 0 58.0219 13.8913 806 115.809 127.009 472.053
236 0 59.0553 12.2258 722 121.08 127.09 470.831
237 0 60.0349 12.4428 747 119.912 126.888 469.944
238 0 63.1557 13.4905 852 117.609 126.553 469.163
239 0 66.0417 13.5066 892 117.765 126.611 468.437
240 0 69.0854 14.1853 980 116.407 126.387 466.414
241 0 69.0817 13.3176 920 119.99 125.896 467.305
242 0 72.1026 12.9954 937 120.59 126.542 467.287
243 0 75.1222 13.7509 1033 118.939 126.305 465.962
244 0 76.1826 14.334 1092 118.307 126.007 464.789
245 0 79.0849 13.6309 1078 122.278 126.314 461.739
246 0 81.1107 13.4384 1090 123.076 126.204 461.661
247 0 84.1142 12.7446 1072 124.827 125.972 461.845
248 0 87.1109 13.5115 1177 123.329 126.355 458.856
249 0 89.1228 13.0831 1166 125.291 126.446 457.437
250 0 91.1122 13.8949 1266 124.636 127.195 453.896
251 0 96.1988 13.5968 1308 123.95 126.273 453.73
252 0 101.22 14.4438 1462 120.722 125.441 451.655
253 1 50.1428 12.3049 617 119.669 125.438 475.635
254 0 50.1205 11.8913 596 120.948 126.273 475.122
255 0 52.0368 12.7602 664 117.634 126.547 475.639
256 0 55.0552 13.7317 756 114.206 125.329 475.295
257 0 57.0808 13.4897 770 114.596 125.342 473.578
258 0 57.0217 11.4167 651 120.138 125.521 473.194
259 0 62.0446 13.2646 823 113.94 125.373 472.041
260 0 63.0426 13.0071 820 115.601 125.424 471.256
261 0 65.026 13.5946 884 113.456 125.437 469.936
262 0 66.0456 12.6125 833 117.627 125.333 468.005
263 0 68.0907 13.0561 889 117.361 125.461 466.492
264 0 70.0821 12.8135 898 117.479 125.187 466.659
265 0 71.0482 12.963 921 118.438 125.206 466.022
266 0 75.058 13.363 1003 117.252 125.935 463.851
267 0 77.066 12.6385 974 120.033 127.507 464.328
268 0 80.1839 14.0427 1126 116.216 127.698 462.776
269 0 82.1315 13.1375 1079 119.08 127.068 461.33
270 0 83.143 14.3247 1191 117.642 126.594 460.167
271 0 87.2299 13.8255 1206 116.98 126.559 459.135
272 0 91.1814 13.5115 1232 116.455 126.483 458.227
273 0 93.1308 13.3253 1241 115.595 124.991 455.55
274 0 98.1214 13.3508 1310 114.222 125.276 455.21
275 1 50.1129 11.1947 561 112.627 125.829 478.137
276 0 49.0974 11.8336 581 109.731 126.733 477.143
277 0 52.0429 11.9132 620 110.332 125.552 475.116
278 0 54.058 12.7826 691 106.392 125.822 477.072
279 0 56.1512 12.8225 720 107.533 126.017 473.712
280 0 59.0337 12.4675 736 106.739 126.576 473.098
281 0 59.1205 11.485 679 109.897 126.862 472.367
282 0 62.1034 13.5902 844 104.553 126.277 471.406
283 0 65.2017 11.7942 769 108.033 126.512 470.623
284 0 66.0903 11.9685 791 109.29 126.718 469.123
285 0 69.0898 13.866 958 104.253 125.97 466.979
286 0 71.0403 13.8513 984 105.829 126.519 466.277
287 0 72.047 11.4231 823 111.458 126.145 466.831
288 0 78.1142 14.2612 1114 104.162 126.632 464.752
289 0 78.2115 14.4992 1134 105.519 126.608 461.059
290 0 81.1989 12.2415 994 110.764 126.387 462.048
291 0 81.0991 12.9348 1049 110.182 126.495 460.525
292 0 87.1822 13.7069 1195 107.613 126.162 460.074
293 1 45.0803 10.2706 463 112.454 126.832 480.3
294 0 48.0861 12.2073 587 109.053 126.637 478.608
295 0 48.0398 12.0525 579 108.903 126.661 477.62
296 0 49.0375 11.7053 574 109.763 126.824 477.934
297 0 53.0582 12.8538 682 106.094 126.512 477.232
298 0 57.0907 14.5558 831 72.083 126.767 479.963
299 0 54.1037 11.9585 647 109.23 126.702 476.345
300 0 56.0805 10.9486 614 111.404 127.114 473.223
301 0 59.0298 13.1459 776 105.477 127.112 474.034
302 0 58.0407 12.0605 700 109.176 126.889 472.376
303 0 60.0561 11.9721 719 108.814 126.616 471.388
304 0 62.0646 12.0036 745 109.946 126.917 470.226
305 0 63.0956 11.4905 725 110.49 126.909 470.872
306 0 67.0517 13.2733 890 105.681 127.388 468.361
307 0 71.0811 13.1259 933 106.121 126.782 466.374
308 0 72.0954 12.2615 884 107.535 126.757 468.896
309 0 74.092 12.7274 943 107.948 127.2 465.267
310 0 76.1343 11.795 898 110.986 126.243 462.865
311 0 80.3561 12.6935 1020 108.307 126.795 462.69
312 1 42.0185 10.7096 450 111.282 127.027 482.578
313 0 45.038 12.989 585 109.862 126.894 479.528
314 0 46.0365 12.2294 563 113.396 126.462 478.455
315 0 46.0126 10.7797 496 113.087 125.121 479.708
316 0 48.0563 12.0692 580 108.283 124.212 479.334
317 0 51.0164 12.5058 638 108.544 124.793 476.693
318 0 50.0536 11.7474 588 112.09 124.696 476.529
319 0 52.0701 12.003 625 111.43 124.566 475.699
320 0 55.0486 14.6416 806 104.975 124.835 474.568
321 0 58.115 12.3892 720 110.096 125.244 473.718
322 0 61.0996 13.5353 827 107.826 125.485 473.712
323 0 60.1065 12.9936 781 110.292 124.768 472.492
324 0 62.0867 12.9335 803 111.138 124.479 471.661
325 0 65.0689 12.8326 835 111.69 124.877 470.429
326 0 67.0595 14.0771 944 109.498 125.118 468.852
327 0 69.1071 12.9364 894 110.821 125.389 469.798
328 0 73.1586 14.038 1027 109.165 125.371 467.012
329 0 75.2415 13.4234 1010 110.641 126.256 465.535
330 1 34.0313 10.843 369 119.233 125.054 485.065
331 0 36.0293 12.6564 456 116.971 125.382 482.669
332 0 38.017 11.4686 436 119.544 125.305 485.016
333 0 39.1577 10.828 424 121.679 125.896 483.047
334 0 41.1676 12.3398 508 119.421 126.197 482.833
335 0 40.1275 11.8871 477 122.34 126.243 481.556
336 0 42.143 12.4576 525 120.701 125.838 481.12
337 0 43.0548 12.4957 538 120.615 126.229 480.693
338 0 44.0867 12.861 567 119.684 126.325 480.94
339 0 46.036 12.0123 553 122.454 126.278 479.928
340 0 47.1553 14.0599 663 118.572 126.086 478.729
341 0 49.1774 12.9734 638 121.056 125.856 479.401
342 0 49.0439 12.8864 632 122.478 126.25 479.044
343 0 51.052 13.7507 702 120.578 126.869 477.608
344 0 50.017 12.3558 618 126.961 126.654 477.566
345 0 52.114 13.8543 722 122.762 126.899 477.069
346 0 51.0749 13.0593 667 127.778 126.477 476.513
347 0 56.166 12.2672 689 127.515 126.325 475.491
348 0 56.1088 12.5292 703 128.643 126.381 474.876
349 0 58.1094 14.4211 838 123.93 126.967 472.388
350 0 60.0654 13.6518 820 126.777 127.087 471.452
351 0 63.2001 14.2088 898 124.63 126.283 472.329
352 0 65.1304 14.5708 949 125.46 126.786 470.759
353 0 65.1161 14.0058 912 128.641 127.19 470.451
354 0 70.1286 14.5304 1019 126.569 126.762 469.247
355 0 70.0969 14.1233 990 129.388 127.054 468.56
356 0 73.1094 14.704 1075 127.526 126.106 468.727
357 0 75.1578 14.1569 1064 130.18 126.523 466.749
358 0 77.2519 13.4495 1039 133.056 127.196 466.167
359 0 82.2473 14.505 1193 128.93 127.227 464.275
360 0 84.0749 14.9985 1261 126.597 126.966 459.697
361 1 40.0895 11.1002 445 128.418 127.283 481.452
362 0 41.0426 12.8647 528 122.945 127.131 480.064
363 0 44.1002 12.1995 538 126.015 127.781 482.271
364 0 45.0914 12.6188 569 126.786 127.313 481.293
365 0 47.0367 13.8828 653 122.06 126.93 480.608
366 0 47.0281 12.5882 592 126.706 127.666 479.667
367 0 49.0556 14.1268 693 123.431 127.416 477.356
368 0 52.0502 13.8136 719 122.533 127.099 477.565
369 0 52.0901 13.1887 687 126.144 127.575 477.418
370 0 52.0191 11.6303 605 132.023 127.512 476.36
371 0 58.0487 13.9538 810 122.484 127.6 475.563
372 0 59.096 13.5373 800 125.013 127.276 473.803
373 0 62.0715 13.7422 853 122.142 127.229 474.122
374 0 62.1659 13.1101 815 126.081 127.075 472.377
375 0 65.056 14.2339 926 124.407 127.558 471.351
376 0 68.0588 13.7528 936 124.946 127.608 470.808
377 0 71.1922 14.0746 1002 123.793 127.174 470.79
378 0 72.1468 14.3596 1036 125.194 126.751 468.254
379 0 72.0702 13.3342 961 130.757 127.685 468.268
380 0 75.0727 13.2938 998 131.767 127.212 466.465
381 0 78.1483 13.4232 1049 131.771 127.337 466.376
382 0 83.1321 13.3402 1109 132.151 127.309 464.487
383 0 85.218 13.5652 1156 131.775 127.437 464.054
384 1 47.0593 13.5786 639 136.776 127.379 480.471
385 0 48.0146 14.4331 693 137.991 127.527 478.622
386 0 50.1293 14.9414 749 136.626 127.728 476.515
387 0 50.2201 13.2616 666 142.779 128.269 476.683
388 0 53.1446 13.7173 729 140.321 128.418 475.999
389 0 53.1618 13.1674 700 144.346 127.587 474.504
390 0 55.152 14.3422 791 138.661 127.576 475.173
391 0 59.2185 13.7626 815 137.993 127.537 474.157
392 0 61.1993 14.7224 901 135.141 127.891 473.29
393 0 62.1955 14.6956 914 137.14 128.073 470.643
394 0 64.2299 14.1679 910 138.033 127.421 470.776
395 0 68.1386 14.0743 959 137.596 127.37 469.223
396 0 70.2053 14.3009 1004 136.631 127.737 468.504
397 0 73.2796 14.3833 1054 135.837 128.089 466.496
398 0 75.1515 13.7056 1030 138.654 128.139 464.769
399 0 79.2425 14.5376 1152 134.202 127.91 463.177
400 0 80.0858 13.3607 1070 138.3 127.812 460.807
401 1 42.0925 12.5676 529 131.369 128.166 481.994
402 0 43.0947 11.8808 512 135.824 128.352 480.285
403 0 45.0557 12.4735 562 132.724 128.039 480.507
404 0 47.0811 13.1051 617 131.901 127.755 478.859
405 0 50.1907 13.5483 680 129.24 128.046 476.893
406 0 50.0697 13.4213 672 131.046 127.836 475.469
407 0 54.113 13.6197 737 127.83 128.46 476.223
408 0 54.1293 13.0428 706 130.585 128.708 475.871
409 0 54.1286 12.8398 695 131.285 127.955 475.148
410 0 57.1205 13.3752 764 129.637 128.226 473.524
411 0 59.1011 13.0624 772 130.028 128.37 473.387
412 0 60.23 14.3948 867 127.956 127.958 471.288
413 0 63.0953 14.28 901 127.053 128.184 470.681
414 0 63.1027 13.6286 860 130.443 128.355 469.906
415 0 67.1728 13.6811 919 129.314 128.603 467.853
416 0 69.1992 13.8152 956 128.574 128.548 467.158
417 0 74.1357 14.5274 1077 125.188 128.089 466.141
418 0 76.2631 12.9027 984 129.715 127.561 464.705
419 0 79.3666 13.7085 1088 127.722 128.267 462.653
420 0 80.2537 13.7315 1102 127.79 128.184 460.75
421 0 83.2723 13.7381 1144 128.3 127.811 456.891
422 0 84.2444 12.9267 1089 131.147 127.806 454.127
423 0 88.2585 13.2792 1172 128.144 128.24 451.579
424 1 41.1286 9.45814 389 120.093 127.499 473.139
425 0 44.1334 10.4456 461 117.152 127.117 471.922
426 0 47.1195 10.6325 501 115.768 126.804 470.842
427 0 49.171 10.3923 511 117.344 128.681 475.646
428 0 50.0654 10.1867 510 118.98 127.357 475.665
429 0 53.0414 10.3881 551 117.029 127.096 475.535
430 0 54.0261 11.2723 609 115.516 127.365 473.941
431 0 56.0632 10.2741 576 115.594 127.866 474.681
432 0 58.0905 10.914 634 115.497 127.465 470.35
433 0 62.1195 11.4457 711 112.194 127.512 471.733
434 0 64.0686 10.9414 701 111.559 127.551 472.686
435 0 65.1082 11.0892 722 114.331 127.835 469.17
436 0 68.0973 10.6906 728 115.389 127.948 468.076
437 0 69.1065 11.012 761 114.246 127.558 468.606
438 0 72.1315 10.0927 728 116.791 127.077 466.433
439 0 74.1643 10.5037 779 115.254 127.504 465.018
440 0 76.141 9.23287 703 116.949 127.973 465.787
441 0 79.1134 10.2132 808 114.978 127.661 463.048
442 0 84.1333 11.5412 971 113.307 127.13 459.625
443 0 86.1404 11.8411 1020 113.466 127.605 459.427
444 1 47.0515 10.2441 482 109.616 128.295 479.793
445 0 49.0355 10.6657 523 106.629 128.352 477.099
446 0 49.0094 11.2428 551 106.183 128.537 476.343
447 0 51.0649 9.3998 480 109.15 127.748 479.485
448 0 50.0441 8.8522 443 113.447 128.431 478.23
449 0 51.1632 9.83129 503 110.398 127.811 477.171
450 0 54.1148 10.4408 565 110.124 127.865 473.954
451 0 54.1289 8.57213 464 113.558 128.317 475.157
452 0 58.1242 11.6475 677 106.727 128.622 474.527
453 0 56.0867 8.96825 503 112.771 128.712 473.296
454 0 60.1221 10.1128 608 110.184 128.224 471.446
455 0 61.1278 9.71735 594 111.125 128.662 470.423
456 0 66.1351 11.038 730 106.829 128.268 469.201
457 0 67.1787 10.5539 709 108.475 128.429 468.824
458 0 69.1892 11.0277 763 106.872 128.202 468.549
459 0 69.1313 9.359 647 111.3 128.457 468.204
460 0 74.1572 10.5452 782 109.501 128.439 463.531
461 0 78.2479 11.2846 883 107.565 128.027 464.368
462 0 81.1386 10.2048 828 110.188 128.123 462.55
463 1 161.31 11.5244 1859 118.224 127.053 422.763
464 0 164.327 11.325 1861 118.35 127.627 419.269
465 1 86.0442 9.39052 808 111.167 128.512 457.36
466 0 90.0345 10.185 917 108.593 127.783 457.576
467 0 93.0688 9.92814 924 108.419 127.352 455.846
468 0 96.1531 8.21607 790 111.606 127.222 452.705
469 1 51.0797 9.59286 490 105.896 128.363 477.42
470 0 54.1512 11.0801 600 102.7 128.278 474.668
471 0 51.0468 10.0104 511 105.004 128.276 476.517
472 0 54.1007 10.2032 552 104.9 128.379 475.254
473 0 53.0283 9.24036 490 107.09 128.631 474.827
474 0 59.0389 10.3491 611 103.614 128.822 471.232
475 0 58.0377 9.51105 552 105.524 128.672 473.918
476 0 64.1397 11.0384 708 102.049 128.503 470.674
477 0 65.1668 10.1125 659 103.863 127.939 469.046
478 0 67.1101 10.1624 682 103.324 128.592 467.616
479 0 69.0902 9.82774 679 103.607 128.483 467.133
480 0 73.1183 10.736 785 100.887 127.987 465.768
481 0 76.0883 10.6061 807 101.981 127.166 464.185
482 0 81.3043 11.7583 956 99.8452 128.345 466.453
483 1 43.2003 10.6712 461 103.926 128.262 481.659
484 0 43.1293 11.5467 498 102.795 128.799 480.171
485 0 44.0394 12.2618 540 97.6907 127.919 480.572
486 0 46.1108 10.9302 504 98.8492 128.476 479.986
487 0 48.0449 11.7598 565 97.6142 128.853 479.745
488 0 48.0627 11.6098 558 98.8262 128.362 478.253
489 0 49.0825 11.715 575 98.6035 127.762 476.475
490 0 51.0644 11.2407 574 100.239 127.61 476.728
491 0 52.0734 11.0613 576 100.234 127.694 477.722
492 0 54.0271 11.2351 607 100.924 127.466 474.941
493 0 56.1093 11.0499 620 101.095 126.832 475.213
494 0 58.1579 12.8615 748 97.9626 126.6 471.686
495 0 59.1894 12.0799 715 100.206 126.463 472.656
496 0 62.0706 11.6319 722 100.716 127.078 472.794
497 0 62.152 12.1155 753 102.19 127.649 471.491
498 0 65.1142 12.4397 810 101.435 127.447 470.415
499 0 65.1132 13.2538 863 101.289 127.319 469.664
500 0 68.0517 13.1518 895 104.654 127.741 467.963
501 0 70.0881 12.4129 870 108.503 126.922 467.801
502 0 72.1355 13.6687 986 106.242 126.538 468.322
503 0 75.1227 14.6427 1100 105.589 127.265 465.366
504 0 77.0871 14.1917 1094 107.788 126.879 462.792
505 0 79.14 13.2423 1048 110.762 127.11 462.532
506 0 82.1136 14.1633 1163 109.224 127.045 459.87
507 0 83.1213 13.354 1110 112.621 127.218 460.619
508 0 86.1163 13.9811 1204 111.754 127.088 461.547
509 0 90.0585 13.8466 1247 113.216 127.884 459.239
510 0 91.1713 13.864 1264 115.036 126.794 456.642
511 1 50.0281 12.8528 643 114.768 127.25 477.872
512 0 53.0196 11.1657 592 118.715 127.87 478.485
513 0 53.0601 13.136 697 117.448 127.798 477.502
514 0 56.0649 13.1455 737 119.368 126.57 475.151
515 0 58.262 13.9885 815 117.053 126.594 474.492
516 0 59.0651 12.901 762 121.643 126.64 474.825
517 0 60.0499 14.1716 851 120.12 126.652 473.175
518 0 63.1135 13.547 855 121.995 126.939 473.013
519 0 62.1131 14.0711 874 123.712 127.162 470.38
520 0 65.0956 13.5186 880 124.814 126.882 471.285
521 0 66.058 13.7152 906 126.82 126.369 468.403
522 0 68.0857 13.2186 900 127.934 126.579 469.337
523 0 71.0883 14.5031 1031 124.831 126.21 465.939
524 0 76.1137 14.7936 1126 122.303 126.921 466.423
525 0 75.0924 13.2637 996 129.524 126.348 465.845
526 0 79.1038 14.8918 1178 124.576 126.101 464.153
527 0 82.0707 15.5232 1274 123.391 126.44 461.316
528 0 84.1071 14.0297 1180 128.265 126.293 461.966
529 0 88.0758 13.6814 1205 129.299 126.834 460.568
530 0 91.1596 14.162 1291 128.259 126.707 457.666
531 0 94.1175 13.7594 1295 130.015 127.204 455.524
532 1 44.0459 10.8977 480 129.065 126.294 481.202
533 0 47.0595 12.1548 572 126.341 126.105 479.28
534 0 48.1309 12.3413 594 128.323 126.384 478.2
535 0 50.0815 13.7376 688 118.343 125.935 477.176
536 0 50.0555 12.4062 621 122.548 125.889 477.435
537 0 52.0984 13.2826 692 120.003 125.941 475.579
538 0 52.0457 12.3353 642 124.388 126.232 474.783
539 0 55.156 11.404 629 125.641 125.638 474.73
540 0 58.1591 12.9816 755 120.551 126.094 474.003
541 0 58.0718 12.8117 744 122.339 125.969 473.316
542 0 61.1529 12.9675 793 120.586 126.045 472.067
543 0 63.1311 12.8621 812 120.369 126.131 471.286
544 0 64.1006 13.1512 843 119.376 126.117 469.899
545 0 68.0933 12.8794 877 120.027 126.357 468.669
546 0 69.0824 11.508 795 125.896 126.106 467.487
547 0 71.121 11.8952 846 124.8 125.773 466.382
548 0 72.0359 12.23 881 124.069 126.388 466.163
549 0 76.071 12.9353 984 121.503 126.555 465.693
550 0 77.078 12.909 995 121.999 126.317 465.031
551 0 81.1158 11.7856 956 124.157 126.778 461.029
552 0 85.089 11.9992 1021 121.025 126.312 461.519
553 0 88.0555 12.0606 1062 123.722 126.186 459.66
554 1 44.0905 10.2743 453 122.815 126.049 482.066
555 0 47.1242 11.6289 548 119.522 126.624 480.905
556 0 46.0317 11.1879 515 125.128 126 476.988
557 0 49.085 11.5514 567 123.952 126.63 477.418
558 0 50.1595 11.4834 576 125.165 127.167 477.849
559 0 53.1811 11.0942 590 125.573 127.137 477.368
560 0 55.1015 12.1049 667 122.376 126.816 476.396
561 0 56.1163 12.2068 685 123.623 127.054 474.774
562 0 59.1508 12.8316 759 122.569 126.863 473.752
563 0 59.236 12.3405 731 125.226 126.893 472.912
564 0 60.13 11.5583 695 127.912 127.173 473.587
565 0 64.1575 11.9861 769 125.56 127.473 473.151
566 0 64.1692 12.467 800 125.705 127.63 471.359
567 0 67.1972 13.2595 891 124.158 127.451 470.24
568 0 70.177 13.0242 914 125.609 127.155 469.477
569 0 70.2222 13.4858 947 126.75 126.917 466.477
570 0 74.1606 13.7 1016 125.779 126.628 466.406
571 0 76.1158 13.4269 1022 127.34 126.873 465.356
572 0 78.1651 13.5738 1061 127.306 127.196 463.632
573 0 83.1035 13.4531 1118 126.915 127.4 463.771
574 0 83.1856 12.4541 1036 133.493 127.436 460.459
575 0 86.1894 12.4029 1069 132.752 126.925 461.947
576 0 90.4073 13.5166 1222 129.854 126.952 458.671
577 0 93.2676 13.2844 1239 130.429 127.429 457.642
578 0 94.2498 12.1167 1142 126.727 127.562 457.602
579 1 52.0414 11.5677 602 127.463 126.126 478.615
580 0 55.0139 12.3787 681 127.58 127.555 477.229
581 0 54.1015 11.4599 620 127.465 127.784 477.668
582 0 56.118 12.5985 707 122.414 126.88 475.946
583 0 56.2257 11.2048 630 126.625 127.043 475.983
584 0 60.1192 11.1944 673 124.877 126.305 474.842
585 0 61.2136 12.971 794 121.793 126.989 472.612
586 0 63.1219 12.056 761 124.544 127.127 471.225
587 0 65.1037 13.1329 855 120.766 126.835 471.813
588 0 67.1307 11.9915 805 121.954 127.144 470.441
589 0 69.0878 11.8979 822 123.328 127.201 469.322
590 0 72.0697 13.0846 943 120.318 127.229 467.846
591 0 74.0794 12.6081 934 121.69 127.219 467.68
592 0 77.1368 12.4843 963 122.859 127.201 464.83
593 0 80.0859 13.036 1044 120.944 127.289 464.581
594 0 81.1189 11.8221 959 126.058 126.626 463.776
595 0 84.1671 11.4772 966 127.369 127.067 462.48
596 0 89.223 13.1244 1171 123.377 126.848 460.937
597 1 47.0649 10.05 473 129.182 128.006 481.089
598 0 48.0377 11.5951 557 126.785 127.088 480.666
599 0 49.0865 11.0825 544 127.314 127.204 480.051
600 0 51.1515 12.2772 628 124.183 126.223 475.167
601 0 53.0586 12.1187 643 125.093 126.896 476.437
602 0 54.0676 13.6496 738 119.579 127.322 475.776
603 0 56.1237 11.9023 668 123.38 127.418 476.674
604 0 57.0927 12.7162 726 123.82 127.685 474.066
605 0 59.0418 13.1432 776 122.227 127.439 474.079
606 0 60.053 12.9885 780 123.283 127.454 473.285
607 0 62.0242 12.0114 745 125.361 127.891 473.719
608 0 66.0419 13.2946 878 121.294 127.934 471.355
609 0 69.0941 13.7783 952 119.249 127.051 470.902
610 0 71.0659 12.7206 904 122.888 125.872 468.602
611 0 74.0927 12.6058 934 123.218 125.645 468.61
612 0 78.0506 13.0684 1020 121.009 125.804 467.677
613 0 79.0703 13.9243 1101 120.574 125.973 465.825
614 0 80.049 13.4792 1079 123.891 126.386 462.901
615 1 41.052 11.254 462 126.374 125.84 484.758
616 0 43.0417 11.5005 495 127.711 127.283 483.119
617 0 43.0243 11.7608 506 125.119 127.342 483.429
618 0 44.0399 11.6712 514 123.424 125.798 482.033
619 0 46.0243 11.9285 549 122.503 126.281 481.816
620 0 47.0465 13.7524 647 117.536 126.847 480.434
621 0 50.0477 12.1084 606 121.545 126.642 481.073
622 0 50.0359 13.2305 662 120.796 126.698 478.02
623 0 51.0669 12.7871 653 121.776 125.827 478.809
624 0 53.048 12.5358 665 120.74 125.605 479.183
625 0 56.0497 13.2739 744 118.257 125.617 477.948
626 0 56.0972 12.621 708 119.79 125.633 476.626
627 0 59.0817 12.7789 755 118.254 125.617 475.234
628 0 60.0611 12.3041 739 120.153 125.143 474.87
629 0 62.1405 13.0672 812 117.773 125.432 472.729
630 0 64.0571 13.2382 848 117.252 125.23 472.746
631 0 67.0486 14.1986 952 113.307 125.572 470.987
632 0 68.1156 12.009 818 119.735 125.326 469.556
633 0 70.173 11.9989 842 121.019 125.521 470.068
634 0 75.1372 12.6435 950 118.393 125.8 467.623
635 0 76.147 12.5284 954 118.951 125.669 466.052
636 0 81.1551 13.0368 1058 117.915 125.904 464.874
637 1 39.0957 10.4359 408 125.404 126.135 484.051
638 0 42.0602 11.7688 495 122.065 126.325 483.23
639 0 43.1048 11.762 507 124.886 125.923 481.789
640 0 45.0047 12.7764 575 124.231 126.237 481.774
641 0 47.0346 12.7566 600 124.275 127.14 481.64
642 0 48.0799 12.8328 617 124.266 125.078 480.123
643 0 50.113 12.2324 613 125.414 125.362 479.589
644 0 53.1534 13.0001 691 123.525 125.145 477.957
645 0 52.1016 12.0726 629 127.553 126.692 478.604
646 0 55.0795 13.1083 722 124.012 127.087 477.431
647 0 55.0784 13.9074 766 122.829 125.321 476.969
648 0 56.2464 13.4586 757 124.81 125.383 474.934
649 0 59.2057 13.7994 817 123.871 125.333 475.239
650 0 60.0895 12.7809 768 127.598 125.26 472.053
651 0 62.1756 13.1563 818 125.43 125.127 473.252
652 0 65.2859 13.4332 877 124.87 125.653 472.967
653 0 66.1584 12.7421 843 124.811 124.854 472.173
654 0 67.0721 12.822 860 124.199 125.48 472.199
655 0 71.148 12.6075 897 124.321 125.676 471.528
656 0 73.1178 13.6766 1000 122.79 126.041 469.109
657 0 75.2132 13.0562 982 123.877 125.673 469.582
658 0 79.3898 13.7675 1093 121.366 126.085 468.361
659 0 83.2494 13.7899 1148 121.942 125.978 464.976
660 0 82.3337 11.8178 973 126.711 125.884 463.962
661 0 87.3493 12.6389 1104 122.933 125.659 458.799
662 1 46.2965 10.1952 472 116.021 125.805 477.121
663 0 49.1248 11.8474 582 111.392 126.146 474.981
664 0 50.2092 11.6114 583 109.391 126.348 474.431
665 0 49.0527 11.294 554 105.903 126.587 481.388
666 0 51.0682 11.3769 581 107.737 126.589 478.651
667 0 52.0802 10.9255 569 107.594 126.255 476.467
668 0 54.0321 10.1236 547 107.87 126.11 475.976
669 0 57.0437 10.6059 605 107.458 126.412 475.031
670 0 57.0408 10.7818 615 107.789 125.82 472.906
671 0 60.0477 10.1586 610 107.744 125.303 473.798
672 0 61.0969 10.0332 613 107.607 125.55 473.028
673 0 65.0945 10.8765 708 106.624 125.661 471.219
674 0 66.0394 10.2212 675 107.945 125.403 471.32
675 0 68.0416 10.8316 737 108.328 125.602 469.81
676 0 70.0705 12.1735 853 107.077 125.626 466.566
677 0 72.0928 10.7223 773 110.466 125.568 466.69
678 0 77.0676 11.8727 915 107.519 125.678 463.883
679 0 77.1622 11.4694 885 109.208 125.216 463.841
680 0 84.0759 13.2499 1114 104.688 125.255 461.539
681 0 85.0745 12.4597 1060 108.432 125.08 458.993
682 0 91.1133 13.2472 1207 105.303 125.824 458.827
683 0 94.136 12.8006 1205 105.711 125.271 458.402
684 1 47.0788 11.2365 529 109.34 126.291 477.962
685 0 48.0239 10.932 525 112.714 125.731 479.419
686 0 50.0645 13.4227 672 104.153 126.249 476.714
687 0 53.2451 12.0574 642 107.234 125.913 478.21
688 0 54.0472 11.6565 630 108.997 125.813 477.794
689 0 57.0792 11.703 668 109.247 125.581 476.68
690 0 56.0121 12.0688 676 110.806 125.964 476.584
691 0 61.0876 12.4739 762 108.398 126.463 475.434
692 0 61.161 13.1783 806 108.506 126.349 474.239
693 0 63.0687 13.6676 862 107.278 126.406 473.411
694 0 64.0221 13.3079 852 110.279 126.163 471.106
695 0 67.1115 14.0065 940 109.138 125.984 470.613
696 0 69.1198 13.9613 965 110.195 126.584 470.517
697 0 71.1687 13.9387 992 111.325 126.939 468.288
698 0 75.0897 14.0099 1052 111.612 127.087 466.899
699 0 77.0682 13.4945 1040 113.073 126.502 465.052
700 0 79.1673 14.2988 1132 112.913 126.564 463.941
701 0 81.0629 13.9891 1134 114.775 126.539 463.447
702 0 82.0961 12.9117 1060 119.022 126.359 462.358
703 0 86.2185 13.8717 1196 115.79 126.522 458.597
704 0 90.215 13.2129 1192 118.3 125.935 456.108
705 0 89.137 12.2508 1092 123.306 125.506 455.278
706 0 94.1273 12.6743 1193 122.486 126.402 453.37
707 0 98.213 14.438 1418 124.382 125.207 456.747
708 0 102.269 13.484 1379 123.925 125.421 456.131
709 1 53.1484 13.4529 715 125.382 125.745 479.164
710 0 55.4113 13.5171 749 128.278 126.077 478.134
711 0 54.0252 13.1605 711 118.789 126.211 477.653
712 0 57.0663 13.458 768 116.777 126.438 477.161
713 0 60.0523 13.5049 811 117.205 126.481 475.956
714 0 61.0857 12.5561 767 119.771 126.862 472.467
715 0 63.0353 12.9451 816 118.936 126.431 472.946
716 0 67.0651 13.7628 923 115.81 126.557 472.681
717 0 68.0534 13.2543 902 118.506 127.093 471.624
718 0 72.0893 13.1642 949 118.582 127.235 470.152
719 0 72.1982 13.1859 952 119.824 126.923 469.492
720 0 77.0896 13.4259 1035 120.329 126.851 466.74
721 0 79.0575 13.7621 1088 119.842 127.042 465.631
722 0 80.064 14.2386 1140 119.444 126.504 465.92
723 0 82.0871 14.4115 1183 121.782 126.279 463.348
724 0 86.0877 14.2878 1230 126.608 126.093 460.65
725 0 88.1342 14.0468 1238 127.35 126.113 461.258
726 0 92.0699 14.3043 1317 125.722 126.099 458.383
727 0 95.1576 15.2379 1450 123.815 125.419 455.512
728 0 95.2167 13.8211 1316 128.172 125.163 455.061
729 1 43.1592 12.0484 520 125.346 125.919 481.281
730 0 46.1449 11.9407 551 124.808 125.953 479.499
731 0 48.0948 13.4526 647 121.355 126.124 479.314
732 0 51.0568 13.6123 695 120.806 126.298 477.053
733 0 53.1148 13.2355 703 120.838 126.595 478.178
734 0 55.1734 13.8835 766 118.55 126.223 478.272
735 0 57.0911 13.4522 768 123.901 125.98 475.663
736 0 58.1483 13.8611 806 124.438 126.789 472.975
737 0 60.2224 13.6992 825 122.09 126.516 473.968
738 0 61.1429 14.1308 864 122.132 126.292 472.646
739 0 62.1003 13.7842 856 123.096 126.166 471.345
740 0 66.1898 13.8692 918 122.856 126.609 468.937
741 0 68.0889 13.9523 950 122.322 126.117 469.879
742 0 70.0872 13.8256 969 122.416 125.885 469.188
743 0 74.149 13.4998 1001 123.713 125.967 466.926
744 0 77.0438 14.1867 1093 121.609 126.166 468.45
745 0 78.3131 14.5697 1141 122.907 125.674 464.942
746 0 82.1349 14.2449 1170 124.89 125.637 463.854
747 0 83.2589 13.8484 1153 127.539 125.578 463.267
748 0 87.1848 13.8442 1207 129.017 125.519 461.483
749 1 45.1798 13.4352 607 126.758 125.277 482.964
750 0 47.1551 13.6147 642 129.889 125.483 480.922
751 0 47.1056 14.4781 682 130.632 125.515 479.57
752 0 49.4424 14.4208 713 130.328 125.644 480.505
753 0 50.1715 14.9487 750 132.643 125.96 478.188
754 0 51.0823 14.2124 726 134.555 126.142 479.61
755 0 55.2019 14.4379 797 132.906 126.077 478.262
756 0 55.1865 14.4238 796 135.448 125.837 476.891
757 0 58.1854 14.5913 849 133.559 125.756 476.843
758 0 59.2243 14.3691 851 135.59 125.89 475.255
759 0 61.1427 14.4253 882 134.28 125.879 476.155
760 0 61.2543 13.5664 831 140.002 125.13 473.503
761 0 66.1569 15.5237 1027 133.333 125.145 472.161
762 0 69.356 16.163 1121 131.263 125.145 471.546
763 0 70.1807 14.7049 1032 136.772 124.919 470.253
764 0 73.3487 14.9969 1100 135.776 125.59 469.328
765 0 75.1928 14.9349 1123 136.116 125.427 468.516
766 0 79.2626 14.5466 1153 137.127 125.57 465.732
767 0 83.2181 15.6096 1299 132.722 125.109 463.626
768 0 85.1555 15.9355 1357 132.454 125.546 461.957
769 0 86.1261 14.4439 1244 137.978 125.404 461.166
770 0 89.1103 14.9141 1329 135.257 125.81 461.235
771 0 93.3024 15.005 1400 135.305 125.811 457.652
772 1 46.0945 13.3639 616 140.99 125.907 480.381
773 0 48.0621 13.2745 638 140.716 125.889 479.759
774 0 49.1089 14.8038 727 136.486 125.633 478.699
775 0 51.1464 14.8202 758 135.42 125.854 479.414
776 0 52.1159 15.2737 796 135.519 125.655 477.043
777 0 55.0841 14.6685 808 136.302 126.356 476.74
778 0 56.1456 15.1036 848 136.167 126.16 476.143
779 0 57.2472 14.5684 834 139.004 125.844 475.416
780 0 61.06 15.2637 932 135.25 125.796 474.45
781 0 62.078 14.7879 918 139.446 125.503 471.974
782 0 62.113 14.3448 891 142.327 125.13 472.285
783 0 68.1059 14.36 978 139.302 125.267 472.495
784 0 70.0928 16.2214 1137 134.598 125.771 470.412
785 0 69.1104 15.0918 1043 140.849 125.937 469.648
786 0 72.1054 15.3664 1108 140.968 125.934 468.025
787 0 75.1057 16.2305 1219 139.619 125.595 466.935
788 0 76.1176 15.5943 1187 143.322 125.522 465.026
789 0 79.2823 15.1989 1205 144.061 125.226 463.908
790 0 83.2272 15.9924 1331 140.947 125.791 462.987
791 0 83.1629 15.4516 1285 145.85 125.321 461.258
792 0 87.2074 15.4918 1351 145.694 125.258 459.713
793 0 91.3016 15.5967 1424 144.274 125.619 458.605
794 0 93.1885 15.2272 1419 146.999 125.524 455.858
795 0 98.358 16.5924 1632 141.822 125.48 454.068
796 0 100.148 15.2873 1531 146.56 125.252 452.668
797 0 106.165 16.1918 1719 142.279 125.298 450.19
798 0 109.326 16.0896 1759 144.089 125.155 447.218
799 1 49.1009 11.4866 564 151.218 125.043 472.73
800 0 53.1709 11.416 607 147.86 124.87 473.16
801 0 55.1282 12.5344 691 145.262 125.017 471.016
802 0 57.0691 13.142 750 143.436 124.613 470.567
803 0 58.226 12.2797 715 147.313 125.213 468.786
804 0 60.1782 12.1805 733 147.161 125.053 468.42
805 0 63.2832 12.8312 812 144.906 124.454 465.643
806 0 64.1362 12.3799 794 148.752 124.615 463.644
807 0 67.1175 12.8431 862 145.118 125.151 464.61
808 0 67.193 12.7841 859 145.736 124.604 462.916
809 0 70.0902 12.2842 861 147.872 124.535 460.323
810 0 74.2893 12.5725 934 145.789 124.914 460.475
811 0 77.1888 13.1237 1013 144.294 125.37 458.85
812 0 79.2905 14.0118 1111 141.117 124.57 456.888
813 0 81.2253 13.1117 1065 143.564 125.315 454.627
814 0 85.2214 13.7172 1169 139.971 125.309 454.666
815 0 88.2465 13.3263 1176 141.587 125.29 453.965
816 0 90.2411 12.9653 1170 143.715 125.003 451.148
817 0 92.2004 12.6247 1164 144.995 125.181 450.745
818 0 96.1219 12.5986 1211 146.893 125.06 446.069
819 0 101.24 13.3149 1348 144.281 125.286 447.807
820 0 104.119 12.9468 1348 144.402 125.396 444.967
821 0 108.098 12.9883 1404 144.692 125.38 442.605
822 0 114.134 13.5542 1547 142.25 124.9 441.334
823 0 117.164 12.7514 1494 143.676 125.031 441.126
824 0 118.095 12.5408 1481 144.685 125.399 437.066
825 0 123.137 12.3684 1523 145.137 125.452 434.615
826 0 127.265 12.9179 1644 143.882 125.553 431.94
827 1 69.0405 7.25661 501 120.846 125.323 469.707
828 0 74.1005 7.13896 529 121.236 126.142 468.866
829 0 77.152 9.77292 754 117.276 125.589 464.232
830 0 81.1097 9.60427 779 116.987 125.941 463.78
831 0 82.0814 8.44283 693 119.991 125.01 462.056
832 0 85.0565 9.07632 772 119.146 124.815 462.824
833 0 85.1326 7.28275 620 126.6 124.697 456.215
834 0 90.1782 10.4127 939 119.507 124.807 456.343
835 0 93.1493 9.23249 860 122.779 124.167 456.085
836 0 97.1151 9.30854 904 120.43 124.763 455.696
837 0 98.1069 9.60177 942 122.774 124.218 449.446
838 0 102.182 10.0017 1022 120.446 124.419 451.36
839 0 106.143 10.1185 1074 119.093 124.737 450.748
840 0 109.137 9.81334 1071 117.395 125.074 450.046
841 0 114.167 10.0204 1144 117.036 124.841 443.846
842 0 117.119 8.8969 1042 119.75 124.084 443.717
843 0 122.122 10.7024 1307 121.772 123.607 439.93
844 0 125.436 9.69421 1216 123.211 124.09 434.811
845 0 129.392 10.3329 1337 121.556 124.826 434.31
846 0 134.361 11.2756 1515 119.107 124.845 431.261
847 0 134.611 11.1506 1501 120.514 124.455 431.975
848 0 139.402 10.1074 1409 123.328 123.892 425.936
849 0 146.393 11.9815 1754 117.799 124.567 426.076
850 0 151.436 11.8268 1791 118.626 123.956 424.631
851 0 157.35 9.9841 1571 123.241 124.673 420.894
852 0 161.292 12.0837 1949 118.832 125.067 419.646
853 0 165.307 10.2113 1688 124.96 125.092 415.445
854 0 173.273 11.9118 2064 120.236 125.047 412.614
855 0 178.463 11.2964 2016 122.358 124.974 409.779
856 1 95.2766 10.0025 953 118.949 124.919 456.485
857 0 94.454 9.3167 880 124.311 124.928 452.26
858 0 99.3109 8.40794 835 123.96 124.813 456.932
859 0 104.284 9.4933 990 121.557 124.573 454.777
860 0 107.615 9.06006 975 124.602 124.798 451.192
861 0 108.545 10.3736 1126 122.955 124.676 446.479
862 0 114.441 10.6517 1219 122.13 124.263 446.295
863 0 115.429 9.51237 1098 123.423 124.147 449.858
864 1 65.1666 8.43991 550 116.465 124.284 475.053
865 0 65.1022 9.07804 591 117.756 124.443 471.391
866 0 68.1359 9.92135 676 116.747 124.744 469.398
867 0 70.0902 10.1441 711 117.857 124.553 467.27
868 0 73.1009 10.2598 750 118.205 124.416 466.029
869 0 74.0995 10.3374 766 118.742 124.145 465.909
870 0 80.2363 11.2667 904 115.289 124.66 465.662
871 0 80.1546 10.4922 841 118.57 124.911 464.775
872 0 85.128 11.606 988 117.307 124.868 463.478
873 0 89.0831 11.2591 1003 118.766 124.912 462.739
874 0 91.0759 12.1327 1105 117.758 124.822 458.419
875 1 46.0634 10.3119 475 118.246 124.926 480.971
876 0 47.1419 10.6275 501 116.391 125.094 482.273
877 0 48.0447 10.6567 512 116.33 124.93 480.902
878 0 52.0925 11.3836 593 123.032 126.029 478.54
879 0 54.2786 11.6252 631 126.976 125.518 477.284
880 0 54.1979 12.399 672 126.939 125.354 476.004
881 0 55.1383 11.589 639 128.484 125.009 476.405
882 0 58.185 12.5634 731 124.465 124.483 476.536
883 0 59.2698 11.5236 683 127.96 124.738 474.725
884 0 58.1805 11.8425 689 128.277 125.266 473.327
885 0 62.2388 11.7451 731 126.045 125.114 474.308
886 0 62.2806 12.0102 748 125.948 125.41 473.178
887 0 65.2587 11.8145 771 124.921 125.364 470.252
888 0 66.2293 12.9399 857 122.762 125.356 468.58
889 0 70.1675 12.5272 879 121.76 125.213 468.148
890 0 71.0572 11.4556 814 117.842 125.623 468.929
891 0 74.0918 12.417 920 116.151 126.021 468.74
892 0 75.0726 12.0417 904 119.726 125.754 466.842
893 0 78.1468 12.7325 995 117.581 126.233 464.901
894 0 78.0529 12.0431 940 121.776 126.417 464.37
895 0 82.1777 12.7163 1045 120.878 125.955 463.257
896 0 83.1472 12.3155 1024 123.465 125.825 462.536
897 0 85.1564 12.2833 1046 124.235 126.639 460.743
898 0 89.2468 12.9304 1154 122.544 126.409 457.185
899 0 89.3936 11.5333 1031 127.075 126.163 453.874
900 0 94.4439 12.7271 1202 124.47 126.396 452.967
901 0 96.2836 12.0166 1157 127.495 126.387 451.396
902 0 100.324 13.7953 1384 122.125 126.313 450.095
903 1 53.3017 10.7314 572 122.757 126.428 474.252
904 0 54.285 11.1449 605 121.886 126.955 474.208
905 0 57.1029 12.3461 705 119.247 125.166 476.749
906 0 59.1255 11.6363 688 121.18 125.997 476.241
907 0 59.0533 11.8368 699 121.953 125.738 476.116
908 0 63.0645 13.0977 826 118.09 124.971 474.948
909 0 63.0444 13.1812 831 119.597 125.231 474.449
910 0 64.0493 13.4896 864 119.646 124.572 470.766
911 0 67.0578 12.7353 854 120.958 124.773 470.924
912 0 70.1389 12.3897 869 131.801 124.709 470.578
913 0 70.1789 12.7816 897 130.88 124.649 469.821
914 0 74.0612 13.2728 983 130.12 125.185 467.816
915 0 77.0874 12.0642 930 131.769 125.192 467.342
916 0 78.0745 12.5393 979 131.032 125.102 465.785
917 0 81.1595 12.8266 1041 128.84 124.948 464.969
918 0 83.0994 12.5873 1046 128.999 125.118 463.23
919 0 86.0981 13.2175 1138 126.555 125.22 464.287
920 0 88.1162 11.9842 1056 129.555 125.415 463.484
921 0 91.1549 12.8792 1174 128.543 126.034 458.832
922 0 96.2835 13.024 1254 126.715 125.599 457.661
923 0 96.1809 12.4869 1201 129.958 124.875 455.705
924 0 101.152 14.2657 1443 125.416 125.255 454.801
925 0 103.199 12.9846 1340 127.71 125.234 455.59
926 0 107.148 12.3194 1320 130.15 125.46 452.514
927 1 56.0893 11.1786 627 122.876 124.625 476.955
928 0 58.1064 13.3204 774 120.408 124.307 474.839
929 0 59.135 12.1755 720 121.213 125.15 473.344
930 0 62.0354 12.4767 774 119.943 125.413 472.986
931 0 65.1127 12.5321 816 118.239 124.549 472.186
932 0 67.1193 12.8428 862 118.007 125.341 471.305
933 0 70.1063 12.6665 888 118.965 125.441 469.776
934 0 71.1653 13.4757 959 117.2 125.396 468.531
935 0 71.216 12.2304 871 123.914 125.606 467.255
936 0 75.105 13.4212 1008 120.393 125.788 466.431
937 0 76.049 13.7806 1048 121.431 125.827 463.49
938 0 80.1344 13.2652 1063 122.355 126.039 463.611
939 0 81.1081 13.2539 1075 124.093 125.356 463.124
940 0 85.0696 12.9894 1105 125.25 126.085 460.926
941 0 89.1614 13.1111 1169 125.1 125.692 459.83
942 0 92.0795 13.1191 1208 126.25 125.484 457.627
943 0 93.0805 12.4623 1160 128.168 125.341 456.198
944 1 51.0638 11.3975 582 126.211 124.823 477.857
945 0 51.0913 12.5462 641 126.153 124.412 477.599
946 0 54.0404 13.3419 721 122.416 124.76 477.295
947 0 56.1044 13.0115 730 122.173 124.652 475.149
948 0 60.0243 13.3113 799 126.549 126.432 473.855
949 0 58.0448 11.9391 693 132.977 126.058 473.924
950 0 62.0376 12.976 805 128.942 126.147 472.329
951 0 65.0683 13.0478 849 128.196 126.101 470.724
952 0 66.0517 13.1715 870 127.233 126.344 471.136
953 0 68.0797 12.5001 851 130.349 126.173 469.179
954 0 70.0978 12.8677 902 129.615 125.984 466.945
955 0 74.043 12.5603 930 129.052 125.927 467.899
956 0 75.0953 12.9968 976 129.577 126.663 465.467
957 0 76.0936 12.5898 958 128.861 125.76 466.439
958 0 79.0654 12.2936 972 129.65 124.986 465.118
959 0 83.0806 12.6985 1055 129.29 125.828 461.775
960 0 85.0818 12.8229 1091 130.402 125.521 460.189
961 0 89.1033 12.7829 1139 129.02 125.655 460.977
962 1 48.1267 11.0542 532 126.477 125.883 480.579
963 0 51.0155 12.6628 646 121.404 126.432 478.435
964 0 52.0355 12.453 648 120.827 126.571 476.997
965 0 52.0164 13.0728 680 119.094 126.387 477.118
966 0 53.095 11.6395 618 123.379 126.008 476.814
967 0 54.0346 12.4735 674 121.617 125.536 474.095
968 0 57.0843 13.7166 783 120.096 124.803 472.35
969 0 59.0884 13.3698 790 121.373 124.871 472.072
970 0 60.1094 13.6252 819 121.701 125.322 471.055
971 0 62.0625 14.3243 889 119.657 124.749 470.368
972 0 62.0721 13.3393 828 124.522 124.563 469.081
973 0 65.0826 13.6596 889 123.705 125.062 467.242
974 0 67.1027 14.1276 948 121.887 125.12 466.741
975 0 69.0509 12.3822 855 128.531 125.738 467.105
976 0 71.0427 13.147 934 127.753 125.403 466.591
977 0 74.0554 13.7735 1020 126.482 125.663 464.369
978 0 76.0569 14.0027 1065 126.42 125.992 463.078
979 0 80.0552 13.9154 1114 125.61 125.404 460.832
980 0 83.1465 13.9874 1163 126.121 125.821 457.972
981 1 44.0308 10.4927 462 124.909 125.19 478.688
982 0 45.0406 10.7237 483 113.739 126.24 475.979
983 0 46.0598 10.4864 483 115.545 125.752 476.176
984 0 46.0797 10.2214 471 118.887 125.488 475.989
985 0 49.0556 10.5595 518 117.405 125.5 475.353
986 0 49.0301 9.99387 490 119.839 125.537 473.7
987 0 52.0644 12.3309 642 115.509 125.536 472.637
988 0 54.0396 10.8254 585 118.86 126.036 474.121
989 0 54.0167 12.2925 664 127.151 125.846 474.369
990 0 56.0884 12.3377 692 126.214 125.409 475.094
991 0 57.1244 12.0964 691 126.974 124.847 474.799
992 0 61.0918 12.3421 754 125.905 125.049 473.565
993 0 61.0548 12.4151 758 127.018 125.075 470.792
994 0 64.1783 12.886 827 124.279 125.243 471.461
995 0 67.0717 13.7018 919 123.098 125.68 467.462
996 0 70.0721 12.9581 908 124.75 125.055 466.152
997 0 70.0989 13.0102 912 126.489 127.215 467.16
998 0 75.1069 13.4342 1009 123.849 126.956 466.186
999 0 76.0952 14.0613 1070 122.587 126.692 463.145
1000 0 80.0745 13.1003 1049 123.293 126.905 461.815
1001 0 84.0782 14.6292 1230 118.289 126.931 460.782
1002 1 42.0952 11.379 479 126.357 126.466 481.269
1003 0 43.0175 12.0881 520 121.615 124.881 476.427
1004 0 45.1187 13.2761 599 116.162 124.835 478.169
1005 0 46.0528 12.0948 557 119.043 125.268 480.743
1006 0 47.0256 12.6314 594 118.769 125.384 479.646
1007 0 48.1491 12.7313 613 117.716 125.09 478.897
1008 0 51.083 13.1942 674 116.795 124.752 477.316
1009 0 52.0892 13.3809 697 116.099 124.187 475.64
1010 0 51.0702 11.729 599 121.479 124.997 475.556
1011 0 55.0321 13.5557 746 115.996 124.583 475.61
1012 0 57.0727 13.5617 774 115.156 124.627 475.306
1013 0 59.0371 14.0081 827 114.88 124.961 472.579
1014 0 60.0248 13.8943 834 114.707 124.817 471.668
1015 0 59.093 13.3011 786 118.669 124.63 471.589
1016 0 64.1612 14.1519 908 114.497 124.873 468.95
1017 0 66.087 14.2388 941 114.336 125.159 467.512
1018 0 68.0772 13.8813 945 115.835 125.077 468.617
1019 0 68.1195 12.4047 845 120.827 124.93 465.976
1020 0 71.0773 13.1828 937 117.81 124.725 467.14
1021 0 74.0591 13.6513 1011 116.133 124.875 464.603
1022 0 78.1082 13.9806 1092 114.605 125.004 463.637
1023 0 80.0658 13.8886 1112 115.407 125.492 462.602
1024 0 81.1635 12.3578 1003 121.862 124.876 463.01
1025 0 82.1081 13.4091 1101 119.703 125.087 462.59
1026 1 44.0458 12.5778 554 117.686 124.258 479.744
1027 0 44.01 11.5428 508 122.146 123.984 479.199
1028 0 46.0855 12.2164 563 121.087 124.249 478.266
1029 0 47.0918 12.5712 592 119.738 123.892 478.527
1030 0 48.0847 12.582 605 121.537 124.183 477.06
1031 0 50.041 13.2691 664 119.875 124.462 477.483
1032 0 52.0777 12.9038 672 120.376 124.622 475.94
1033 0 53.0597 13.0608 693 120.659 124.179 476.245
1034 0 55.1055 14.1184 778 116.889 123.692 475.645
1035 0 57.1053 13.5889 776 120.284 124.143 473.407
1036 0 57.1077 12.6428 722 123.197 124.636 473.19
1037 0 59.0943 12.7085 751 121.67 124.553 474.726
1038 0 61.113 13.3196 814 121.01 124.818 470.889
1039 0 64.1147 13.2887 852 120.612 125.275 470.393
1040 0 63.1054 12.2177 771 124.082 124.307 470.903
1041 0 67.079 13.3127 893 122.188 124.417 468.207
1042 0 69.0412 13.2095 912 123.544 124.362 467.289
1043 0 72.1088 13.5906 980 121.432 124.047 466.902
1044 0 73.0569 12.9488 946 124.761 124.42 467.129
1045 0 75.1461 13.3473 1003 126.113 124.478 464.349
1046 0 78.1123 13.0965 1023 126.452 124.414 464.452
1047 0 81.1311 13.7678 1117 126.646 124.484 460.621
1048 0 85.278 13.4501 1147 127.414 123.896 461.166
1049 0 86.2391 14.0771 1214 127.659 124.175 458.345
1050 0 89.0968 14.2766 1272 128.219 124.293 457.822
1051 0 91.1018 12.755 1162 131.741 125.12 458.131
1052 0 94.1443 13.798 1299 130.547 124.788 456.442
1053 0 99.18 14.64 1452 127.306 125.158 456.598
1054 0 100.048 14.2631 1427 131.362 125.112 450.367
1055 0 105.172 14.7949 1556 128.799 124.528 449.796
1056 0 106.084 14.2057 1507 132.552 124.902 449.114
1057 1 62.2377 12.163 757 130.443 124.58 472.416
1058 0 63.2142 13.7786 871 127.493 125.054 469.189
1059 0 64.0715 13.5474 868 129.198 125.556 470.092
1060 0 67.0754 12.7767 857 131.635 125.044 470.13
1061 0 68.1227 12.0371 820 135.659 125.099 468.204
1062 0 72.2858 13.2668 959 130.117 125.82 468.067
1063 0 74.1534 13.8227 1025 130.419 126.049 466.378
1064 0 76.1584 13.3406 1016 131.55 126.339 465.885
1065 0 78.1437 13.3728 1045 133.829 126.026 462.304
1066 0 81.2728 13.2394 1076 132.513 126.093 463.881
1067 0 84.1695 12.9501 1090 135.273 126.482 461.956
1068 0 85.1833 12.2324 1042 138.069 125.803 460.806
1069 0 87.1951 13.2576 1156 134.735 125.188 461.39
1070 0 92.1391 12.8284 1182 136.797 125.684 458.455
1071 0 95.1295 14.3909 1369 131.956 125.569 456.591
1072 0 97.1847 13.5412 1316 135.322 125.643 454.58
1073 1 48.0651 11.1099 534 138.081 125.423 478.285
1074 0 46.069 12.0254 554 126.157 125.469 478.706
1075 0 50.0305 12.3525 618 122.335 125.906 479.406
1076 0 51.086 12.6845 648 123.468 125.295 476.647
1077 0 54.0433 13.4892 729 118.558 125.401 477.84
1078 0 54.0415 13.1195 709 120.798 125.403 475.969
1079 0 58.0413 13.2492 769 118.555 125.653 476.456
1080 0 59.0541 12.243 723 122.115 126.138 474.559
1081 0 62.1916 12.365 769 120.28 125.808 473.853
1082 0 61.0461 13.0557 797 120.63 125.625 472.654
1083 0 63.075 14.0309 885 117.982 125.278 469.933
1084 0 67.1029 13.5165 907 119.142 126.378 470.109
1085 0 69.0793 12.7535 881 122.43 125.165 468.469
1086 0 72.1031 13.7165 989 119.561 125.701 467.722
1087 0 74.0754 12.9868 962 123.143 125.374 466.28
1088 0 77.2442 13.9946 1081 120.133 124.814 464.832
1089 0 79.1688 12.7702 1011 125.525 125.091 462.779
1090 0 83.1852 14.3896 1197 120.598 124.953 462.88
1091 0 85.1488 13.2944 1132 125.054 125.725 461.379
1092 0 87.1684 13.1929 1150 126.891 125.461 459.028
1093 0 91.1339 13.6283 1242 125.305 125.226 458.771
1094 1 49.1159 12.8472 631 128.076 125.339 478.818
1095 0 50.0218 13.0343 652 129.02 124.179 475.929
1096 0 51.02 13.3869 683 125.495 124.217 477.236
1097 0 52.0662 12.5417 653 129.525 124.502 474.919
1098 0 55.0314 13.138 723 126.51 124.591 475.365
1099 0 56.0206 13.3344 747 126.959 124.657 475.522
1100 0 58.0387 14.4731 840 123.236 124.456 473.454
1101 0 59.0487 13.2772 784 126.79 124.151 473.19
1102 0 62.0465 14.1668 879 124.375 124.365 471.861
1103 0 63.0665 14.4926 914 122.856 124.52 470.544
1104 0 64.0974 13.9475 894 125.695 125.03 467.791
1105 0 67.1029 14.3213 961 122.879 125.058 468.103
1106 0 68.232 13.2489 904 126.479 126.838 468.407
1107 0 73.1445 13.7946 1009 123.93 126.413 468.397
1108 0 76.1113 14.3868 1095 121.497 126.594 465.892
1109 0 77.1337 14.5073 1119 122.042 126.066 465.358
1110 0 79.1159 12.8672 1018 125.26 126.047 464.887
1111 0 81.0445 12.9435 1049 125.736 126.333 463.582
1112 0 82.0582 11.8574 973 127.214 126.059 462.324
1113 0 86.0863 13.1496 1132 121.883 125.566 459.367
1114 1 45.0756 10.8041 487 112.949 124.955 474.715
1115 0 46.0503 9.59821 442 113.699 124.473 474.916
1116 0 47.0774 10.2809 484 109.492 124.818 474.556
1117 0 49.0749 9.76059 479 109.906 125.8 477.754
1118 0 52.1112 11.3028 589 107.321 125.647 475.336
1119 0 51.0295 10.7193 547 110.322 125.59 474.377
1120 0 55.1526 11.4047 629 108.07 126.064 473.184
1121 0 56.0861 10.7335 602 110.326 125.593 473.424
1122 0 59.0678 11.1905 661 108.605 125.576 473.006
1123 0 61.075 11.7397 717 107.72 125.831 471.559
1124 0 62.0263 11.0276 684 109.608 125.911 470.11
1125 0 65.0451 11.9302 776 106.978 125.571 469.423
1126 0 67.0735 11.8527 795 108.421 125.421 466.93
1127 0 69.0658 11.699 808 109.123 125.132 467.696
1128 0 73.0754 11.1802 817 109.601 124.821 467.049
1129 0 75.067 12.3756 929 109.272 125.005 464.476
1130 0 79.2122 12.1067 959 109.719 124.975 462.958
1131 0 79.0636 11.2188 887 112.665 125.268 463.486
1132 0 82.1196 11.1545 916 113.59 125.579 462.074
1133 0 86.0717 12.9078 1111 111.372 126.023 458.669
1134 0 88.1569 11.9446 1053 114.896 125.198 457.525
1135 1 45.0376 11.9456 538 113.063 125.245 482.309
1136 0 48.0729 11.5658 556 113.065 125.649 480.455
1137 0 50.0314 12.2323 612 112.289 125.902 479.547
1138 0 49.1051 12.3205 605 114.246 124.937 478.469
1139 0 52.14 12.2171 637 113.531 125.331 477.559
1140 0 54.152 13.3329 722 110.74 125.529 477.114
1141 0 57.0995 13.3802 764 111.148 125.309 476.432
1142 0 58.1209 13.5924 790 111.362 125.035 474.527
1143 0 60.1036 12.9277 777 112.86 125.619 474.673
1144 0 61.1216 13.105 801 113.674 124.948 473.68
1145 0 63.0808 12.4126 783 115.974 125.526 472.088
1146 0 65.0756 13.7532 895 112.337 125.413 470.931
1147 0 68.1176 13.2565 903 112.793 124.831 471.229
1148 0 70.0901 14.0961 988 111.514 124.167 468.741
1149 0 72.1484 13.5 974 113.21 123.664 467.777
1150 0 73.0895 13.7366 1004 113.92 123.774 466.053
1151 0 78.1544 13.2942 1039 113.269 123.368 465.642
1152 0 79.1066 12.7929 1012 115.909 124.209 463.339
1153 0 84.0729 14.8086 1245 109.707 124.231 460.379
1154 0 87.1075 14.0172 1221 111.31 124.066 459.594
1155 0 89.1175 12.8033 1141 115.233 124.036 458.247
1156 0 93.1059 13.5759 1264 112.524 123.634 457.468
1157 1 50.1383 12.0068 602 119.751 124.229 476.935
1158 0 51.2018 12.9683 664 115.786 124.017 476.941
1159 0 52.0453 12.297 640 116.909 123.753 475.864
1160 0 53.1159 12.1621 646 116.539 123.83 474.43
1161 0 55.0201 11.9956 660 117.73 124.505 474.603
1162 0 57.1021 12.7841 730 115.01 124.482 474.845
1163 0 58.0403 12.1467 705 118.18 124.475 473.281
1164 0 60.0475 11.824 710 118.108 124.806 472.563
1165 0 61.098 11.6861 714 118.209 124.322 469.261
1166 0 66.0458 13.0515 862 113.445 125.003 468.65
1167 0 66.0725 11.8052 780 117.095 124.703 468.026
1168 0 69.0997 12.4892 863 114.787 126.156 467.447
1169 0 71.1143 12.3463 878 114.884 124.991 466.191
1170 0 75.1239 13.3646 1004 111.786 126.066 466.756
1171 0 75.0559 11.4048 856 117.328 125.686 465.953
1172 0 78.1447 12.6816 991 115.276 125.92 461.996
1173 0 83.1215 13.2697 1103 113.456 125.873 462.846
1174 0 85.1617 13.2454 1128 114.676 126.005 461.49
1175 0 88.1509 14.1689 1249 112.726 125.657 459.175
1176 0 91.1174 13.082 1192 116.773 125.287 456.885
1177 0 93.1653 13.417 1250 117.971 125.162 455.114
1178 1 49.0341 11.3391 556 122.901 126.315 477.016
1179 0 51.0769 12.2952 628 118.861 126.428 476.403
1180 0 50.2123 12.3077 618 122.845 127 474.636
1181 0 55.0785 12.1644 670 121.149 126.879 475.816
1182 0 55.0953 11.5799 638 128.796 126.575 474.135
1183 0 59.0286 12.5193 739 125.953 126.332 474.172
1184 0 62.0482 11.9907 744 126.837 126.535 473.019
1185 0 62.0344 11.2357 697 130.58 126.77 472.187
1186 0 65.0724 13.339 868 125.166 126.682 471.244
1187 0 67.0475 13.7664 923 125.115 126.548 469.561
1188 0 69.0785 12.8115 885 127.436 126.311 469.026
1189 0 70.0537 12.8187 898 128.586 125.879 467.29
1190 0 72.1224 12.5481 905 128.422 125.947 467.367
1191 0 75.1003 12.49 938 129.983 126.386 466.196
1192 0 78.0626 13.1689 1028 127.913 126.132 463.376
1193 1 39.0359 10.5288 411 123.345 126.465 484.207
1194 0 38.0339 11.5686 440 123.541 126.493 482.555
1195 0 41.024 11.3836 467 122.107 126.34 481.589
1196 0 44.0688 13.1159 578 115.621 126.183 481.306
1197 0 43.0274 11.574 498 122.902 123.114 479.695
1198 0 43.0138 11.4149 491 123.859 123.923 479.554
1199 0 45.029 11.9256 537 122.372 123.955 478.464
1200 0 47.0271 12.546 590 121.197 124.247 478.634
1201 0 48.0177 12.2038 586 122.563 123.776 477.691
1202 0 49.0585 11.3946 559 125.68 123.726 476.891
1203 0 53.0342 13.3876 710 117.704 123.677 476.882
1204 0 52.0336 12.0883 629 123.874 123.525 475.725
1205 0 54.1257 14.0968 763 118.286 123.08 474.224
1206 0 55.0327 12.647 696 122.865 123.881 474.313
1207 0 56.0465 13.7029 768 121.178 123.82 473.75
1208 0 56.0405 12.9728 727 123.542 123.571 473.453
1209 0 60.0259 13.5275 812 121.039 123.356 471.768
1210 0 60.0515 13.8048 829 121.739 123.398 471.239
1211 0 62.0464 14.5536 903 120.504 123.433 469.473
1212 0 65.0711 13.539 881 121.573 123.268 471.578
1213 0 65.0455 12.7142 827 126.224 123.85 469.44
1214 0 68.0139 13.3796 910 124.46 123.343 468.052
1215 0 70.1514 13.8272 970 123.337 123.265 467.075
1216 0 72.0533 13.3929 965 125.19 123.769 465.839
1217 0 73.1094 12.789 935 126.967 123.705 466.099
1218 0 74.0813 13.9981 1037 124.473 123.77 464.91
1219 0 77.1089 14.9658 1154 122.425 123.532 463.514
1220 0 79.3046 14.7659 1171 123.768 124.491 463.703
1221 0 81.1026 13.5137 1096 127.992 124.405 462.209
1222 0 85.1827 14.6156 1245 125.221 124.015 460.98
1223 0 86.1112 14.3419 1235 127.206 124.189 459.278
1224 0 88.2853 13.9774 1234 128.544 124.105 457.851
1225 0 91.2268 13.8446 1263 128.296 123.99 456.616
1226 0 92.1392 13.154 1212 126.386 124.287 457.481
1227 1 47.1101 11.6111 547 127.731 125.34 478.527
1228 0 49.3835 12.1498 600 122.787 125.288 475.237
1229 0 49.0265 11.096 544 120.772 123.513 473.482
1230 0 51.0922 11.4107 583 118.322 124.199 472.671
1231 0 50.081 11.6611 584 118.216 123.663 471.067
1232 0 54.1047 12.1246 656 115.837 123.785 471.047
1233 0 55.108 11.922 657 118.199 124.362 470.556
1234 0 57.089 12.9097 737 115.476 124.168 470.17
1235 0 58.0983 12.0313 699 120.322 124.597 467.764
1236 0 61.1023 12.5691 768 116.574 123.723 468.458
1237 0 63.0485 11.5784 730 120.729 123.325 466.603
1238 0 67.0962 13.4136 900 115.601 123.606 464.662
1239 0 68.0842 11.4417 779 114.225 125.035 467.869
1240 0 71.0468 12.8788 915 111.992 124.407 465.109
1241 0 74.0252 12.0364 891 115.539 124.338 463.315
1242 0 75.0297 11.9286 895 116.771 123.708 461.838
1243 0 77.0694 12.5342 966 116.627 123.843 461.094
1244 0 79.1194 10.8823 861 120.767 124.009 460.935
1245 0 82.1851 11.9 978 119.184 124.176 458.161
1246 0 83.1679 11.1702 929 122.667 124.316 456.243
1247 1 45.0436 12.2104 550 125.496 123.089 475.9
1248 0 46.0444 11.5324 531 115.42 124.213 475.354
1249 0 46.0821 11.0672 510 116.171 125.331 475.822
1250 0 49.09 11.9373 586 114.959 124.387 473.445
1251 0 50.0692 11.1246 557 116.806 124.104 474.512
1252 0 51.0626 11.809 603 116.221 124.945 473.237
1253 0 51.0527 11.0278 563 119.849 124.462 473.142
1254 0 55.0725 12.6016 694 115.278 124.759 472.393
1255 0 56.1226 13.0072 730 115.77 125.296 471.593
1256 0 56.0453 11.4729 643 120.734 125.25 469.986
1257 0 60.0568 12.2884 738 119.77 125.018 468.432
1258 0 62.0937 12.6905 788 118.732 124.784 467.214
1259 0 62.0981 12.0294 747 121.6 124.697 465.475
1260 0 64.1113 11.3709 729 124.742 125.034 464.613
1261 0 67.1194 13.5132 907 120.173 125.707 462.989
1262 0 69.083 13.3318 921 121.106 125.24 461.73
1263 0 73.0701 13.0833 956 123.04 125.334 460.691
1264 0 75.1824 13.2079 993 122.659 125.045 459
1265 0 77.174 12.8929 995 124.439 125.659 458.059
1266 0 78.0864 12.9472 1011 124.888 124.784 455.629
1267 1 40.0751 10.9794 440 124.891 125.141 475.691
1268 0 42.0781 11.4311 481 129.753 124.771 477.32
1269 0 41.0666 10.8848 447 133.83 125.68 474.414
1270 0 40.1021 11.0967 445 131.562 124.955 475.209
1271 0 43.0819 10.8398 467 128.835 125.135 475.587
1272 0 46.0317 12.7086 585 124.662 124.267 473.299
1273 0 46.0202 10.4085 479 130.516 124.783 473.969
1274 0 49.0397 11.664 572 126.885 125.498 473.451
1275 0 52.0602 12.8121 667 122.706 124.928 473.205
1276 0 50.0722 11.5433 578 128.076 124.753 471.419
1277 0 53.0974 11.5825 615 126.489 125.15 471.6
1278 0 53.086 12.1124 643 127.118 124.617 468.838
1279 0 54.0307 11.8266 639 127.498 124.676 470.138
1280 0 59.013 12.5735 742 124.019 124.968 468.445
1281 0 60.0185 12.2795 737 125.653 124.672 466.479
1282 0 63.1306 13.8126 872 119.47 124.929 466.606
1283 0 64.0546 13.0201 834 123.905 125.861 463.856
1284 0 68.0785 12.7941 871 123.587 125.99 464.958
1285 0 68.1035 12.3782 843 125.61 125.707 462.607
1286 0 68.1035 12.3929 844 141.662 124.716 462.601
1287 1 39.0761 10.8506 424 116.151 125.87 479.392
1288 0 39.062 11.213 438 116.224 125.322 477.635
1289 0 41.1207 11.7459 483 116.464 125.747 477.511
1290 0 42.1158 12.6081 531 118.145 124.58 479.279
1291 0 44.0545 12.1668 536 119.112 124.537 478.989
1292 0 44.1115 11.811 521 121.557 124.795 479.44
1293 0 48.0497 13.6317 655 114.893 124.773 477.986
1294 0 47.0335 11.7788 554 122.162 124.691 475.949
1295 0 51.0738 12.4721 637 119.129 124.353 475.174
1296 0 53.0579 12.722 675 118.265 124.507 474.333
1297 0 51.1309 10.7567 550 126.202 125.682 475.369
1298 0 55.1669 13.3595 737 118.024 125.479 475.09
1299 0 57.1869 11.5586 661 122.254 125.493 475.275
1300 0 58.1766 13.2699 772 119.15 125.315 473.146
1301 0 58.1375 12.1436 706 123.51 125.463 472.215
1302 0 61.0768 11.9194 728 122.632 125.533 472.578
1303 0 62.1062 12.6396 785 121.851 125.559 469.801
1304 0 65.0795 12.431 809 123.553 125.418 467.722
1305 0 68.0971 13.7598 937 119.418 125.032 466.857
1306 0 71.0864 13.8705 986 119.658 125.752 466.683
1307 0 73.1705 12.2454 896 125.41 125.019 464.888
1308 0 77.1781 13.4105 1035 122.191 125.293 463.341
1309 0 79.1348 13.913 1101 122.565 126.165 462.496
1310 0 83.2553 14.942 1244 120.334 125.439 460.324
1311 0 85.2269 14.7019 1253 122.332 125.364 457.54
1312 1 44.0885 11.2047 494 123.322 126.123 480.607
1313 0 44.0563 9.73753 429 126.83 125.503 480.746
1314 0 49.0585 12.0876 593 120.621 125.153 479.595
1315 0 49.0639 12.4735 612 123.279 124.874 476.912
1316 0 51.1814 13.1298 672 119.092 125.906 476.982
1317 0 52.0832 12 625 124.117 125.752 476.69
1318 0 54.0252 12.7348 688 121.871 125.481 474.599
1319 0 56.0859 12.3026 690 122.987 125.697 473.928
1320 0 56.0582 12.1302 680 124.374 124.71 473.001
1321 0 58.1158 13.301 773 121.683 125.343 471.501
1322 0 61.0657 13.2644 810 120.623 125.225 470.742
1323 0 63.0488 11.4514 722 125.587 124.911 470.23
1324 0 65.0908 13.7347 894 119.355 125.342 469.406
1325 0 67.1148 12.0838 811 124.169 125.065 468.165
1326 0 70.0608 13.2599 929 119.977 124.957 468.044
1327 0 73.2175 13.4667 986 118.583 124.984 465.351
1328 0 75.2355 12.946 974 120.443 125.066 463.257
1329 0 77.3023 13.7253 1061 118.634 124.864 460.077
1330 0 81.2765 13.3249 1083 118.564 124.953 459.799
1331 0 85.5148 14.4536 1236 114.701 124.511 458.269
1332 0 86.2783 13.4912 1164 117.928 124.485 457.202
1333 0 90.4272 13.4805 1219 122.056 123.752 451.427
1334 0 92.3198 13.0958 1209 122.263 124.152 453.505
1335 1 49.1394 12.4137 610 117.033 124.644 476.3
1336 0 51.1534 12.8046 655 112.499 124.698 476.6
1337 0 52.1 11.7466 612 108.634 124.802 476.08
1338 0 53.1139 12.1437 645 108.546 125.15 475.479
1339 0 55.1097 12.6475 697 106.908 125.166 474.538
1340 0 57.0693 11.6174 663 109.763 125.475 474.115
1341 0 60.0931 12.0313 723 107.624 125.059 473.391
1342 0 59.1273 12.397 733 109.209 125.256 471.778
1343 0 63.0989 12.631 797 108.079 125.552 470.351
1344 0 63.1347 12.4971 789 109.611 125.172 469.702
1345 0 65.165 11.8162 770 111.865 125.5 467.455
1346 0 69.1646 11.5377 798 111.979 125.57 467.137
1347 0 73.1445 13.3708 978 106.854 125.057 465.462
1348 0 75.1305 12.8443 965 109.534 125.695 466.05
1349 0 75.1005 12.2902 923 112.958 125.537 462.673
1350 0 80.1449 12.3152 987 112.203 126.012 461.35
1351 0 84.1005 14.2449 1198 107.346 125.682 461.614
1352 0 85.1106 12.7364 1084 111.53 125.762 461.154
1353 0 87.1538 13.1148 1143 112.048 125.973 458.387
1354 1 46.0123 11.7795 542 113.338 126.45 480.375
1355 0 49.0595 12.1078 594 112.066 125.773 478.625
1356 0 50.0679 12.4032 621 111.005 126.277 476.944
1357 0 49.087 11.775 578 112.531 124.235 477.548
1358 0 53.0573 13.1933 700 107.119 123.816 475.149
1359 0 53.0947 11.3947 605 113.05 123.041 473.385
1360 0 56.0146 12.9252 724 108.68 124.145 474.149
1361 0 56.0759 11.7163 657 112.825 124.758 474.195
1362 0 58.0146 12.4968 725 111.487 125.41 473.861
1363 0 60.0675 12.6025 757 110.572 125.308 471.754
1364 0 61.0217 12.5037 763 110.59 125.25 472.819
1365 0 64.0411 13.1947 845 108.953 125.325 470.557
1366 0 66.0612 12.7458 842 110.65 125.786 469.786
1367 0 67.2288 12.2715 825 112.227 125.959 470.039
1368 0 70.0784 12.3005 862 112.324 125.274 469.637
1369 0 71.0672 12.6078 896 114.383 125.609 465.741
1370 0 75.0829 15.3297 1151 106.195 125.086 465.83
1371 0 76.0925 13.4179 1021 114.511 125.847 464.789
1372 0 78.0458 13.2743 1036 115.836 125.675 461.426
1373 0 81.1304 13.7063 1112 113.331 125.481 464.103
1374 0 84.1848 12.5676 1058 116.996 124.888 461.82
1375 0 86.174 13.3335 1149 115.789 124.8 459.116
1376 0 90.1607 13.7089 1236 114.282 125.367 458.678
1377 0 92.1757 13.3766 1233 116.169 124.776 458.129
1378 1 47.0314 11.8219 556 116.942 125.45 480.772
1379 0 47.0506 11.8383 557 117.607 125.862 479.294
1380 0 48.1281 12.3213 593 116.251 126.18 478.228
1381 0 50.063 12.3844 620 119.268 126.706 476.653
1382 0 50.1199 13.5276 678 114.218 126.403 479.137
1383 0 50.1264 12.7478 639 118.922 125.221 476.692
1384 0 52.0433 12.8355 668 118.016 125.343 476.665
1385 0 55.0407 12.8632 708 117.719 125.415 477.133
1386 0 57.0573 13.0045 742 117.495 126.039 475.91
1387 0 57.2632 13.5864 778 118.28 125.994 474.364
1388 0 61.1175 14.1694 866 116.196 126.273 473.132
1389 0 61.08 13.7852 842 119.697 125.983 471.741
1390 0 62.1152 13.8935 863 120.13 127.027 472.115
1391 0 66.0884 14.6319 967 118.286 125.646 471.598
1392 0 68.107 14.6387 997 119.366 125.57 469.318
1393 0 71.0573 13.5947 966 122.717 125.497 469.959
1394 0 72.1288 14.0998 1017 122.756 125.38 468.471
1395 0 74.1519 14.4298 1070 122.067 124.646 466.736
1396 0 78.1995 14.7188 1151 121.366 124.355 465.792
1397 0 77.1937 14.768 1140 123.55 124.47 464.825
1398 0 79.1802 14.1449 1120 126.253 123.797 463.388
1399 0 82.2521 13.8112 1136 127.367 123.696 461.141
1400 0 84.3937 14.6575 1237 126.407 123.601 458.483
1401 0 84.2032 13.8712 1168 130.11 124.413 459.686
1402 0 87.1118 13.7524 1198 130.008 124.796 457.629
1403 0 90.1252 12.8599 1159 132.523 124.521 456.125
1404 0 93.1028 14.5538 1355 128.044 124.379 453.447
1405 0 98.1211 13.7483 1349 128.493 124.008 453.675
1406 1 51.1207 11.7956 603 133.731 123.967 473.164
1407 0 54.2614 12.9374 702 129.64 123.736 472.063
1408 0 58.2632 13.6107 793 125.641 123.966 474
1409 0 59.1283 13.4622 796 128.358 124.008 472.092
1410 0 61.2036 12.9404 792 131.866 124.067 470.586
1411 0 63.1346 13.4316 848 128.62 124.446 471.255
1412 0 67.0703 13.7468 922 127.294 124.065 470.17
1413 0 65.207 12.8974 841 133.46 124.131 468.534
1414 0 68.1678 14.3469 978 129.785 123.898 466.547
1415 0 71.1965 13.9473 993 129.278 124.292 465.205
1416 0 73.1808 13.3642 978 130.725 124.433 465.842
1417 0 75.1947 13.8042 1038 129.648 124.321 464.725
1418 0 78.1596 13.8563 1083 130.819 123.352 462.795
1419 0 80.1393 14.0256 1124 130.514 123.701 462.012
1420 0 84.1005 13.9119 1170 130.608 123.781 460.731
1421 0 85.2517 13.7593 1173 133.107 123.658 459.738
1422 0 88.1835 14.4698 1276 131.567 123.33 457.129
1423 0 91.2339 14.0737 1284 132.355 123.462 455.588
1424 0 93.127 13.3259 1241 134.604 123.68 454.028
1425 1 47.0128 11.2523 529 126.953 123.259 477.372
1426 0 49.0551 12.3534 606 119.594 124.467 477.147
1427 0 50.0198 13.5346 677 120.318 123.963 475.972
1428 0 49.0516 13.1902 647 123.617 123.853 475.294
1429 0 51.0631 13.0231 665 124.002 123.725 473.492
1430 0 54.0726 13.2785 718 122.425 123.604 472.628
1431 0 54.1559 13.1103 710 123.692 124.117 470.459
1432 0 57.0959 12.8205 732 122.758 123.746 470.421
1433 0 58.0674 13.7599 799 119.569 123.755 470.668
1434 0 60.0734 13.0174 782 123 123.568 467.481
1435 0 61.2194 12.7901 783 124.206 123.775 465.838
1436 0 63.1136 13.1667 831 121.52 124.029 466.935
1437 0 64.104 13.0101 834 124.42 123.875 463.842
1438 0 67.1976 13.4231 902 122.248 123.918 464.806
1439 0 67.1068 13.933 935 122.75 123.96 461.59
1440 0 70.1267 13.8749 973 123.316 123.488 460.138
1441 0 71.219 13.634 971 124.591 123.632 459.333
1442 0 74.219 13.3389 990 124.19 124.668 461.384
1443 0 77.1464 14.2716 1101 120.348 124.611 459.872
1444 0 79.1993 13.2072 1046 123.769 124.684 457.331
1445 0 83.1748 14.4635 1203 119.468 124.499 457.114
1446 0 85.1544 13.4462 1145 121.801 124.066 455.961
1447 1 44.2056 12.2383 541 125.9 124.329 474.109
1448 0 44.2119 10.6985 473 127.552 124.522 474.135
1449 0 47.1982 12.6488 597 118.965 124.796 473.166
1450 0 49.0338 12.9502 635 123.203 125.745 475.597
1451 0 50.0286 14.032 702 117.013 125.632 474.781
1452 0 50.0286 14.052 703 136.895 125.619 474.693
1453 0 55.0428 14.1526 779 115.82 125.986 472.421
1454 0 54.0322 14.2323 769 118.126 125.693 471.775
1455 0 56.0663 13.5375 759 120.32 126.137 471.812
1456 0 59.0423 13.1431 776 120.978 125.838 470.863
1457 0 62.0581 13.3101 826 120.685 125.839 470.022
1458 0 63.0365 13.4208 846 120.404 125.831 469.706
1459 0 66.0899 14.8283 980 116.4 125.608 468.114
1460 0 68.1503 14.2186 969 118.864 124.989 467.303
1461 0 70.2059 14.6142 1026 118.288 125.241 465.042
1462 0 71.0781 13.2812 944 123.322 124.63 463.689
1463 0 75.0916 14.1561 1063 120.373 125.067 461.717
1464 0 77.1166 12.9933 1002 121.736 125.367 460.593
1465 0 79.152 12.6213 999 123.705 125.663 460.272
1466 0 81.1723 14.2536 1157 120.079 125.529 456.088
1467 0 81.1345 13.2003 1071 124.015 125.195 455.669
1468 0 84.0726 12.5606 1056 125.383 124.766 456.474
1469 0 88.1411 14.1024 1243 96.642 125.493 452.807
1470 1 44.0842 10.2758 453 111.7 125.777 475.159
1471 0 44.1731 11.2965 499 110.032 125.81 475.218
1472 0 45.0896 11.2443 507 106.491 125.414 474.927
1473 0 46.0948 10.9123 503 108.736 125.368 473.014
1474 0 50.0462 10.2705 514 108.158 125.198 474.107
1475 0 52.0955 11.2294 585 104.812 125.277 473.95
1476 0 52.0494 12.027 626 105.634 125.514 471.54
1477 0 52.0935 11.6329 606 106.876 125.434 471.312
1478 0 52.0831 11.4433 596 108.696 125.309 468.807
1479 0 57.0234 12.7316 726 103.645 125.324 468.371
1480 0 58.0952 11.0852 644 108.157 125.216 468.034
1481 0 61.0952 12.5542 767 103.936 124.61 468.696
1482 0 60.0976 11.3482 682 108.299 124.51 466.996
1483 0 63.0612 11.5761 730 107.497 124.448 466.651
1484 0 66.0824 12.0607 797 106.743 124.166 464.859
1485 0 65.0544 11.1599 726 110.175 124.57 462.132
1486 0 67.0952 10.3584 695 112.288 124.764 459.603
1487 0 71.1421 12.2993 875 107.258 124.294 461.167
1488 0 73.0901 12.0263 879 107.879 123.935 461.4
1489 0 76.0906 10.6715 812 117.452 124.583 459.584
1490 0 78.0465 10.8141 844 117.139 124.385 457.347
1491 0 79.0415 10.7791 852 116.797 124.569 453.988
1492 0 82.0403 9.71473 797 124.098 123.181 452.763
1493 0 87.0867 10.6331 926 123.474 123.794 451.977
1494 1 44.1028 10.861 479 113.19 123.829 474.741
1495 0 46.0364 10.4483 481 109.538 123.867 472.01
1496 0 47.0727 8.96487 422 110.979 124.187 472.126
1497 0 51.0513 11.5178 588 104.738 124.168 471.956
1498 0 52.1401 9.60872 501 108.661 124.094 473.19
1499 0 54.0634 11.505 622 105.648 124.238 473.336
1500 0 53.0641 10.8736 577 107.411 124.099 470.414
1501 0 57.0732 10.7055 611 107.463 123.584 469.841
1502 0 58.0805 10.8642 631 107.445 123.908 470.025
1503 0 62.0764 12.6296 784 100.797 124.445 470.335
1504 0 63.1454 13.0809 826 108.538 123.505 470.484
1505 0 65.1118 13.5459 882 108.544 123.635 470.971
1506 0 64.1724 12.7157 816 112.895 123.049 470.143
1507 0 66.0842 14.3453 948 112.089 123.68 468.827
1508 0 68.1165 13.4916 919 115.392 123.318 467.892
1509 0 70.1044 13.4656 944 117.341 122.947 469.083
1510 0 70.0607 12.7318 892 119.219 123.321 468.529
1511 0 73.1911 12.9114 945 116.259 123.408 466.14
1512 0 75.1297 13.51 1015 113.712 123.387 465.89
1513 0 77.1908 13.6156 1051 112.644 123.218 464.148
1514 0 80.0925 13.6342 1092 110.933 123.516 464.369
1515 0 81.0566 12.6455 1025 112.65 123.256 462.71
1516 0 83.1722 12.8769 1071 111.308 123.042 462.509
1517 0 88.2792 14.001 1236 108.618 123.159 459.136
1518 0 88.1424 12.9903 1145 111.803 123.657 458.066
1519 0 93.3323 14.3894 1343 108.962 123.748 455.905
1520 1 48.1796 11.893 573 116.344 123.422 478.939
1521 0 50.0465 11.1896 560 112.07 123.564 478.416
1522 0 50.0285 12.4929 625 100.696 123.702 474.165
1523 0 50.1494 11.2065 562 104.956 123.596 474.806
1524 0 51.0853 12.4498 636 103.789 123.61 472.921
1525 0 53.031 11.8044 626 106.388 124.19 471.121
1526 0 56.0743 11.6631 654 105.705 124.047 472.213
1527 0 56.0266 11.5302 646 108.491 123.522 470.933
1528 0 56.0651 11.2013 628 111.33 123.029 469.99
1529 0 59.0313 11.5871 684 110.949 123.322 467.835
1530 0 59.0195 11.42 674 112.438 123.254 466.813
1531 0 63.0665 11.4324 721 112.71 123.33 465.645
1532 0 63.0795 11.652 735 114.205 123.107 464.029
1533 0 66.0864 12.6955 839 112.642 123.299 465.285
1534 0 70.1165 13.5774 952 111.304 123.867 464.684
1535 0 70.2084 11.0528 776 120.613 123.629 464.268
1536 0 72.1452 12.6827 915 118.245 122.89 462.284
1537 0 74.1669 12.2292 907 120.161 123.117 460.447
1538 0 77.0397 12.9673 999 119.768 123.497 459.031
1539 0 80.1076 12.7454 1021 121.32 123.2 459.196
1540 0 83.0859 14.0698 1169 120.132 123.104 456.766
1541 0 87.1429 13.2197 1152 127.74 122.718 456.414
1542 1 42.0548 10.4388 439 129.891 122.563 478.333
1543 0 46.0188 11.039 508 128.189 122.76 474.671
1544 0 45.0282 11.0153 496 130.355 121.901 472.919
1545 0 49.1855 12.524 616 128.539 122.032 479.216
1546 0 50.0724 13.141 658 128.363 122.325 477.447
1547 0 53.1485 12.7943 680 126.831 122.378 478.616
1548 0 53.0598 13.2304 702 128.695 122.103 476.087
1549 0 56.1081 12.9037 724 128.325 121.997 475.028
1550 0 57.0587 11.7072 668 131.305 121.204 475.816
1551 0 59.1517 11.7664 696 130.063 121.542 473.352
1552 0 62.0898 13.1906 819 127.371 121.731 471.225
1553 0 65.127 12.8979 840 127.071 121.565 471.164
1554 0 67.0716 13.0458 875 126.83 121.607 468.774
1555 0 69.0501 13.4685 930 125.085 121.638 468.647
1556 0 72.0393 13.5065 973 123.95 121.402 467.373
1557 0 76.097 12.8257 976 124.916 121.933 466.054
1558 0 77.22 13.1443 1015 124.713 121.563 463.099
1559 0 82.1635 14.1547 1163 120.193 121.936 462.628
1560 0 84.0555 13.8123 1161 121.092 121.737 461.902
1561 1 43.0449 10.3613 446 121.565 121.63 477.013
1562 0 46.0186 12.3863 570 115.495 121.821 476.891
1563 0 47.0709 11.0897 522 117.534 122.506 475.795
1564 0 50.0766 11.3027 566 116.546 122.463 474.638
1565 0 50.0802 11.242 563 117.723 122.627 474.117
1566 0 50.1133 11.2345 563 119.233 122.298 473.06
1567 0 52.1564 11.7148 611 118.437 123.067 469.574
1568 0 56.0435 12.4368 697 115.029 122.712 472.065
1569 0 56.0509 10.8473 608 120.452 122.16 469.855
1570 0 59.1152 12.6025 745 115.813 121.944 468.875
1571 0 60.0675 12.5026 751 116.534 122.304 468.003
1572 0 61.0529 11.7767 719 117.651 122.129 469.136
1573 0 66.0618 13.5479 895 112.313 121.858 466.655
1574 0 66.0745 11.4265 755 118.091 122.331 465.048
1575 0 66.0622 11.3529 750 146.491 123.345 465.052
1576 0 74.051 12.2483 907 114.843 122.8 462.207
1577 0 76.0831 12.6046 959 114.738 122.541 461.435
1578 0 78.0803 12.167 950 116.307 122.799 459.929
1579 0 83.1858 13.3436 1110 112.655 121.447 457.856
1580 0 85.266 13.8625 1182 112.563 122.051 454.154
1581 0 88.2289 12.4109 1095 114.599 121.631 456.127
1582 0 92.3149 14.2014 1311 113.129 122.499 449.803
1583 1 48.097 9.73034 468 113.511 122.051 470.474
1584 0 51.0454 10.9118 557 111.503 122.199 470.569
1585 0 51.0794 11.1982 572 114.409 122.615 469.455
1586 0 53.0902 11.358 603 107.983 122.128 473.456
1587 0 54.215 9.46233 513 114.105 122.107 470.782
1588 0 59.0865 11.4578 677 108.585 121.997 471.186
1589 0 59.103 12.0975 715 108.818 122.333 470.748
1590 0 62.0722 12.7271 790 107.882 121.967 469.492
1591 0 63.0716 11.7169 739 111.396 121.543 468.981
1592 0 64.0539 10.9595 702 114.652 122.316 465.377
1593 0 65.0791 11.1864 728 115.569 122.029 465.065
1594 0 71.0853 12.6749 901 111.464 122.436 463.615
1595 0 71.1055 12.1791 866 114.114 122.697 462.409
1596 0 75.096 12.6638 951 112.524 121.994 463.595
1597 0 77.1098 12.9296 997 113.815 122.349 459.417
1598 0 80.0592 12.0161 962 116.721 122.526 459.773
1599 0 81.0393 10.8589 880 119.92 122.734 458.652
1600 0 84.2114 11.0318 929 118.762 123.259 457.179
1601 0 89.1146 15.2837 1362 108.925 122.945 454.471
1602 0 92.1158 12.4951 1151 116.487 122.692 453.604
1603 0 94.1215 11.8358 1114 120.945 122.235 451.579
1604 0 99.1144 12.1375 1203 125.171 122.863 455.452
1605 0 101.112 12.0757 1221 125.102 122.705 453.619
1606 1 58.087 11.8271 687 118.774 121.536 473.699
1607 0 58.1068 11.9435 694 121.226 121.927 473.412
1608 0 63.0409 13.0074 820 117.117 123.227 473.466
1609 0 64.2371 12.3449 793 123.155 122.579 471.411
1610 0 64.0634 12.6906 813 124.16 120.951 470.761
1611 0 69.0878 13.5914 939 120.006 120.649 468.529
1612 0 69.2659 13.0223 902 122.681 120.025 468.977
1613 0 72.1568 14.219 1026 118.687 120.649 468.394
1614 0 75.3284 13.9257 1049 119.071 120.88 467.013
1615 0 78.1794 13.2644 1037 120.742 120.15 464.897
1616 0 81.2633 13.3024 1081 120.526 120.577 463.784
1617 0 84.1623 14.7691 1243 116.375 120.714 461.072
1618 0 88.2502 14.9575 1320 115.171 120.641 460.57
1619 0 88.2298 13.0568 1152 120.885 120.488 459.917
1620 0 95.2486 14.3204 1364 117.085 121.259 457.01
1621 0 96.2239 14.1961 1366 118.335 121.167 454.16
1622 1 50.4023 11.8447 597 120.601 121.196 476.265
1623 0 54.5419 12.1191 661 117.492 121.732 477.023
1624 0 54.7283 12.1692 666 119.309 121.348 474.911
1625 0 57.1733 11.8587 678 116.475 120.889 476.041
1626 0 57.3105 11.2719 646 111.378 122.119 470.653
1627 0 57.3105 11.3417 650 151.315 123.115 470.562
1628 0 61.2664 11.7193 718 106.87 122.446 470.769
1629 0 60.2201 9.99666 602 111.088 122.598 472.346
1630 0 64.1926 11.3097 726 109.168 121.979 469.886
1631 0 66.2691 12.736 844 106.314 122.509 468.713
1632 0 68.0759 11.6488 793 106.71 121.542 471.699
1633 0 71.2101 11.2344 800 108.04 122.505 468.904
1634 0 74.1235 11.0896 822 107.949 122.541 467.077
1635 0 75.1389 11.5386 867 107.539 122.814 464.814
1636 0 79.1504 11.0423 874 108.257 122.706 463.955
1637 0 80.315 11.3428 911 108.187 122.894 459.077
1638 0 85.3713 12.6623 1081 104.617 122.461 458.141
1639 0 88.2832 12.6978 1121 104.108 121.882 457.285
1640 0 90.3454 12.4411 1124 105.386 122.536 452.94
1641 0 93.1608 10.7019 997 107.481 122.859 457.49
1642 0 95.2323 11.3932 1085 105.926 123.349 456.186
1643 0 99.213 11.3392 1125 106.964 123.113 451.678
1644 1 52.2905 10.499 549 104.951 123.153 475.046
1645 0 54.2512 12.055 654 101.824 122.566 472.89
1646 0 55.3157 11.0457 611 104.227 122.702 471.926
1647 0 59.5108 11.5441 687 98.1019 122.786 469.061
1648 0 59.3337 12.9606 769 100.81 122.51 466.1
1649 0 62.2532 11.4211 711 99.654 122.864 466.142
1650 0 63.2631 11.7604 744 99.8132 122.824 464.798
1651 0 65.1475 10.2076 665 103.341 121.767 464.914
1652 0 70.1873 11.1986 786 101.529 122.296 463.196
1653 0 72.1583 10.8096 780 103.068 122.379 463.688
1654 0 73.3726 11.0532 811 104.287 122.504 459.908
1655 0 77.2566 11.6624 901 103.351 122.893 459.577
1656 0 79.3862 11.1228 883 105.301 122.963 459.371
1657 0 80.2401 10.2816 825 108.055 122.571 458.973
1658 0 86.2433 9.77467 843 110.788 121.938 458.343
1659 0 86.2396 10.0882 870 111.77 121.915 456.655
1660 0 90.1873 11.8753 1071 108.842 122.189 454.891
1661 0 94.2001 12.1231 1142 107.961 122.853 454.055
1662 1 47.066 9.64602 454 107.515 123.478 477.407
1663 0 50.1162 11.3337 568 102.995 123.114 475.887
1664 0 46.0439 9.68641 446 102.966 121.067 473.794
1665 0 51.0784 10.0825 515 104.219 121.383 467.023
1666 0 52.0589 10.2 531 103.115 121.525 470.286
1667 0 54.0602 10.5623 571 103.266 121.89 469.669
1668 0 58.1056 12.7182 739 109.424 122.71 474.449
1669 0 57.063 12.1795 695 112.806 122.824 472.036
1670 0 62.0939 12.2073 758 110.375 123.408 471.843
1671 0 62.0821 12.4835 775 110.591 122.966 472.408
1672 0 63.0917 12.046 760 113.286 122.48 468.538
1673 0 66.081 12.2577 810 114.654 122.76 466.84
1674 0 69.1272 11.7031 809 115.151 123.654 466.471
1675 0 70.1191 12.8496 901 112.962 123.694 465.206
1676 0 73.1574 12.808 937 113.319 123.231 463.322
1677 0 77.1119 13.3702 1031 111.579 122.986 462.874
1678 0 77.214 12.4848 964 115.744 123.025 461.523
1679 0 81.2449 13.5639 1102 112.584 122.903 459.515
1680 0 87.2519 12.8822 1124 111.777 123.384 461.597
1681 0 89.2861 12.8912 1151 112.976 123.422 457.919
1682 0 90.1922 12.4401 1122 114.617 123.117 457.256
1683 0 95.3114 13.0729 1246 112.526 123.131 453.511
1684 1 50.1149 11.2941 566 117.187 123.772 477.145
1685 0 50.0811 11.2218 562 116.149 120.843 476.68
1686 0 53.0521 12.139 644 112.722 120.464 476.873
1687 0 54.0603 12.2641 663 108.6 122.854 477.471
1688 0 53.0434 11.5754 614 111.906 123.174 475.296
1689 0 55.0608 12.2047 672 110.033 122.749 474.094
1690 0 57.0795 11.9833 684 111.146 122.509 472.993
1691 0 61.0913 12.3094 752 109.529 122.301 473.312
1692 0 60.147 12.1037 728 111.529 123.183 473.229
1693 0 64.0843 12.1871 781 110.992 122.428 471.956
1694 0 64.0835 12.3745 793 111.908 122.315 470.797
1695 0 66.0506 11.8091 780 113.7 122.779 469.835
1696 0 68.1908 11.8344 807 114.113 123.176 468.317
1697 0 71.1074 12.235 870 114.185 123.016 468.129
1698 0 71.1405 11.8076 840 116.561 123.052 466.712
1699 0 74.0862 12.121 898 116.392 123.22 464.342
1700 0 76.1168 12.3232 938 115.649 122.616 462.334
1701 0 81.1362 12.9289 1049 114.179 122.993 462.748
1702 0 81.1441 12.6072 1023 116.572 122.713 460.963
1703 0 83.1798 11.2167 933 121.238 122.348 461.232
1704 0 84.1056 10.6771 898 119.731 122.339 462.151
1705 0 87.1866 11.5499 1007 118.2 122.49 459.092
1706 0 91.0963 11.5372 1051 117.638 122.174 457.25
1707 0 95.153 12.296 1170 116.026 122.486 456.211
1708 0 98.1855 13.1995 1296 114.044 122.225 454.205
1709 0 100.201 12.0658 1209 117.509 122.171 453.156
1710 0 102.231 11.9827 1225 118.711 122.078 450.513
1711 0 106.08 12.3963 1315 118.024 122.101 448.367
1712 0 111.079 12.2795 1364 117.284 122.57 449.402
1713 0 112.13 11.9058 1335 119.404 122.413 448.637
1714 0 118.219 12.5022 1478 117.423 122.444 446.495
1715 0 118.192 12.522 1480 118.703 122.181 445.005
1716 0 124.165 13.4579 1671 117.081 122.236 440.567
1717 0 126.134 12.6849 1600 119.165 122.02 439.138
1718 0 129.149 12.474 1611 120.726 121.564 437.424
1719 0 134.383 13.1862 1772 119.746 122.149 432.184
1720 0 139.323 12.0512 1679 123.242 121.454 435.098
1721 1 73.0914 11.643 851 126.747 123.456 464.792
1722 0 75.0926 12.0385 904 123.829 123.251 463.933
1723 0 80.0801 14.1109 1130 118.998 123.24 461.386
1724 0 81.2665 13.8803 1128 119.103 123.308 463.453
1725 0 84.2881 14.925 1258 118.281 122.989 461.76
1726 0 85.1527 14.4446 1230 122.524 122.789 459.082
1727 0 89.119 14.8902 1327 120.965 122.631 459.399
1728 0 90.2812 13.7016 1237 125.65 122.759 457.467
1729 0 92.2453 14.017 1293 126.344 122.496 455.225
1730 0 94.3073 13.8802 1309 128.209 122.351 455.209
1731 0 98.2182 13.6533 1341 129.639 122.314 451.79
1732 0 104.431 13.1187 1370 130.261 121.455 449.493
1733 0 103.315 13.2314 1367 132.908 121.991 447.387
1734 0 103.316 13.5119 1396 166.353 122.978 446.954
1735 0 107.202 13.9456 1495 132.656 121.674 443.764
1736 0 110.45 13.0467 1441 136.165 121.169 441.198
1737 0 115.236 13.9887 1612 133.712 121.721 438.136
1738 0 119.232 14.7024 1753 131.452 121.49 437.013
1739 0 123.286 13.5701 1673 136.364 121.518 434.712
1740 0 126.23 12.5802 1588 141.155 121.314 432.263
1741 0 130.273 14.1318 1841 137.826 121.666 428.709
1742 0 135.256 13.8847 1878 138.46 121.706 427.425
1743 0 138.516 13.4425 1862 141.545 121.636 424.454
1744 0 142.294 14.0484 1999 140.548 121.855 421.678
1745 0 147.328 14.2268 2096 139.13 121.348 420.986
1746 0 154.495 14.0005 2163 139.422 121.194 417.193
1747 0 158.415 14.3105 2267 138.551 121.004 415.777
1748 0 164.345 14.1714 2329 138.667 120.669 414.88
1749 0 169.389 14.1863 2403 138.926 121.14 409.638
1750 0 176.514 13.7723 2431 138.442 120.949 410.241
1751 1 90.3054 10.2209 923 140.718 121.64 449.45
1752 0 94.1948 12.5378 1181 133.609 121.633 448.964
1753 0 97.2232 12.3942 1205 132.392 121.972 448.234
1754 0 102.313 13.1557 1346 125.142 122.1 446.256
1755 0 103.29 12.7021 1312 128.617 122.134 442.776
1756 0 108.134 12.503 1352 125.486 122.425 442.022
1757 0 110.189 12.3515 1361 124.523 121.701 439.242
1758 0 114.195 11.997 1370 125.751 121.604 438.009
1759 0 116.147 12.1398 1410 126.121 120.999 437.94
1760 0 122.424 13.0857 1602 127.985 121.233 429.954
1761 1 70.1855 10.1303 711 134.98 121.807 457.609
1762 0 76.09 11.7361 893 128.796 121.314 459.938
1763 0 78.1451 12.2209 955 129.655 121.259 459.262
1764 0 81.0776 11.7172 950 130.962 122.149 454.507
1765 0 84.1474 11.9314 1004 131.792 121.528 451.785
1766 0 86.1068 12.891 1110 130.107 120.559 450.746
1767 0 89.1387 13.1593 1173 129.855 120.675 450.454
1768 0 94.2639 12.6454 1192 131.662 120.804 447.72
1769 0 97.1267 12.8389 1247 131.164 120.249 445.984
1770 0 96.1795 12.3415 1187 135.575 119.918 445.778
1771 0 100.075 13.1002 1311 133.767 120.259 443.789
1772 0 105.082 13.5228 1421 131.871 120.452 442.531
1773 0 107.12 13.9563 1495 132.282 120.516 439.319
1774 0 110.066 14.8093 1630 129.582 120.799 440.576
1775 0 113.123 13.7549 1556 132.681 120.727 439.199
1776 0 116.102 13.4623 1563 133.958 120.217 435.562
1777 0 122.2 14.018 1713 130.257 121.032 436.125
1778 0 126.23 13.7923 1741 129.103 120.716 431.979
1779 1 68.0924 10.1627 692 127.21 120.645 457.947
1780 0 73.0652 11.9345 872 120.964 120.818 459.5
1781 0 76.0659 12.2788 934 131.228 120.393 464.569
1782 0 77.0608 11.3547 875 127.859 120.505 461.891
1783 0 80.0905 11.7867 944 126.757 120.805 460.032
1784 0 82.1088 12.0815 992 126.536 122.842 459.605
1785 0 87.1276 11.4545 998 123.38 122.939 456.35
1786 0 90.1296 11.8829 1071 121.854 123.853 456.915
1787 0 92.1619 11.3604 1047 123.643 122.696 453.849
1788 0 96.219 12.6067 1213 119.859 123.27 452.87
1789 0 99.1137 12.1376 1203 121.219 123.059 448.886
1790 0 103.19 11.9585 1234 122.397 123.476 445.733
1791 0 105.13 12.3181 1295 121.69 123.561 447.517
1792 0 109.181 12.5022 1365 123.034 122.733 444.525
1793 1 58.0833 12.0517 700 119.06 123.326 466.45
1794 0 59.0841 11.9491 706 119.555 123.635 468.51
1795 0 64.1217 12.2579 786 117.443 123.616 468.34
1796 0 63.0818 11.9844 756 117.333 121.054 471.243
1797 0 67.0457 13.4237 900 113.729 121.024 468.538
1798 0 68.0843 13.1602 896 114.5 120.98 467.166
1799 0 70.0948 13.5245 948 114.188 121.716 466.983
1800 0 73.138 12.8387 939 115.593 121.341 467.135
1801 0 74.1551 13.4448 997 115.111 121.609 466.121
1802 0 77.1114 15.095 1164 110.94 121.604 464.851
1803 0 79.1395 13.3814 1059 116.583 121.807 463.165
1804 0 82.1032 14.5427 1194 112.793 122.079 463.494
1805 0 83.1423 13.9881 1163 115.804 121.793 460.665
1806 0 85.0923 14.2669 1214 116.428 122.019 458.783
1807 0 89.1583 13.863 1236 116.667 121.343 459.925
1808 0 90.0818 13.6209 1227 118.243 121.848 458.673
1809 0 94.1737 13.6131 1282 116.859 121.743 454.876
1810 0 96.1208 13.7535 1322 117.39 122.365 455.634
1811 0 101.148 14.197 1436 115.818 122.119 452.206
1812 0 101.128 12.2023 1234 122.639 121.357 454.54
1813 0 105.219 12.6307 1329 120.893 120.721 452.439
1814 1 54.1985 11.4579 621 123.81 121.377 470.857
1815 0 56.1256 12.2404 687 121.263 121.157 468.833
1816 0 60.2594 12.6951 765 122.227 121.596 472.783
1817 0 60.2146 11.8576 714 125.543 121.651 472.737
1818 0 61.2091 11.9427 731 125.799 121.854 471.45
1819 0 64.2343 13.0616 839 122.841 121.585 469.812
1820 0 67.2941 14.132 951 119.526 121.547 466.618
1821 0 68.4083 12.2938 841 124.43 122.166 468.539
1822 0 71.2383 13.1811 939 120.967 122.255 468.354
1823 0 75.3068 12.9869 978 120.813 122.119 467.655
1824 0 76.3707 12.8976 985 122.678 122.159 466.342
1825 0 79.356 14.5673 1156 118.361 122.634 464.532
1826 0 81.4458 12.5973 1026 123.633 122.375 462.891
1827 0 84.6433 13.421 1136 121.056 122.458 459.402
1828 1 43.3706 12.6584 549 122.118 122.058 477.894
1829 0 44.3144 11.6215 515 125.67 121.893 477.722
1830 0 46.2901 12.2488 567 122.434 122.127 476.727
1831 0 47.1896 12.6935 599 123.579 121.314 477.658
1832 0 50.1979 13.8651 696 119.014 121.355 478.217
1833 0 51.4217 12.7378 655 123.285 121.951 477.499
1834 0 53.3312 13.238 706 121.514 122.186 477.261
1835 0 53.338 12.2802 655 125.322 121.46 477.22
1836 0 56.3916 14.3284 808 120.725 121.973 474.431
1837 0 56.2703 13.0086 732 124.877 121.818 475.281
1838 0 58.1847 13.3884 779 123.71 122.3 474.498
1839 0 60.3984 13.4772 814 124.437 122.351 472.011
1840 0 61.1955 13.2526 811 124.472 122.334 471.469
1841 0 62.1602 11.3738 707 123.914 121.762 473.051
1842 0 62.1273 11.3638 706 117.195 122.035 473.786
1843 0 68.1694 12.3516 842 113.572 121.857 471.992
1844 0 67.0737 12.0464 808 115.973 121.636 471.259
1845 0 72.0838 12.5965 908 114.101 122.044 469.327
1846 0 75.0641 12.1629 913 114.67 122.43 469.11
1847 1 35.0509 10.2422 359 120.117 123.29 486.312
1848 0 38.0751 10.8995 415 116.81 121.776 484.243
1849 0 38.0574 11.798 449 116.118 121.301 482.641
1850 0 41.1508 11.9803 493 115.292 121.298 481.787
1851 0 44.0185 12.3585 544 113.794 121.695 481.822
1852 0 43.0506 11.4516 493 117.961 122.051 482.385
1853 0 46.0308 12.7306 586 113.715 121.374 481.126
1854 0 48.0546 13.1101 630 111.917 121.059 479.362
1855 0 48.096 13.2443 637 113.359 121.661 479.105
1856 0 51.078 12.0208 614 114.311 121.336 479.79
1857 0 51.1743 12.135 621 116.47 121.277 477.767
1858 0 52.0709 12.3101 641 116.682 121.958 476.534
1859 0 54.1245 13.6167 737 112.982 121.944 475.536
1860 0 57.0657 13.2304 755 111.347 121.506 476.946
1861 0 55.04 12.1548 669 118.667 122.004 475.297
1862 0 58.0964 12.8579 747 117.007 122.195 472.791
1863 0 61.1066 12.3882 757 115.375 123.374 472.419
1864 0 64.1435 13.1268 842 114.21 122.73 469.53
1865 0 64.0668 12.3153 789 118.465 123.452 471.641
1866 0 68.1505 12.1496 828 120.624 122.969 469.326
1867 0 70.0394 12.3788 867 122.832 122.837 469.095
1868 0 72.0804 13.0826 943 118.265 122.903 466.841
1869 0 73.0642 12.4 906 121.561 123.161 465.767
1870 0 77.1586 12.7659 985 121.524 122.769 465.742
1871 1 41.2442 12.1957 503 117.074 123.829 483.964
1872 0 41.1858 11.4117 470 119.983 123.228 483.711
1873 0 43.1755 12.1597 525 118.623 123.577 482.632
1874 0 42.1526 12.7394 537 121.488 122.784 480.553
1875 0 45.2038 13.8263 625 118.266 123.173 480.101
1876 0 45.1744 14.5658 658 117.065 122.906 481.834
1877 0 46.0755 13.3694 616 118.907 123.081 477.802
1878 0 49.1011 14.2359 699 115.495 123.494 478.514
1879 0 49.0362 13.0516 640 120.973 123.064 476.944
1880 0 51.0509 13.6139 695 119.722 122.823 477.519
1881 0 51.1087 12.9137 660 123.308 122.914 476.121
1882 0 54.1055 13.8988 752 119.834 122.968 475.753
1883 0 57.0897 13.6977 782 119.297 122.879 476.004
1884 0 59.1423 13.104 775 121.738 123.711 473.928
1885 0 58.1729 13.0989 762 124.634 122.841 473.513
1886 0 60.2046 14.1683 853 123.114 123.108 471.557
1887 0 62.1269 13.1666 818 127.2 123.155 473.388
1888 0 66.1078 14.1436 935 125.428 122.787 471.41
1889 0 68.2 13.0352 889 137.276 122.741 469.009
1890 0 69.1358 13.5096 934 137.208 122.148 466.987
1891 0 72.243 13.8007 997 135.261 122.018 466.277
1892 0 73.3622 13.7401 1008 136.224 122.245 466.081
1893 0 77.2792 13.8459 1070 135.856 122.469 464.523
1894 0 79.2561 14.0178 1111 135.167 122.044 462.712
1895 0 81.4155 15.206 1238 129.628 121.778 459.976
1896 0 83.4172 14.7092 1227 130.69 122.081 459.439
1897 0 87.4325 14.4912 1267 130.555 121.537 458.019
1898 1 41.1841 11.7764 485 130.264 123.151 479.408
1899 0 41.0793 12.1229 498 125.831 123.396 480.365
1900 0 45.0986 11.3307 511 124.016 123.456 480.012
1901 0 45.0982 12.8386 579 124.56 123.273 480.658
1902 0 46.0671 12.5686 579 127.256 123.048 479.242
1903 0 48.0761 12.4178 597 126.637 122.784 479.268
1904 0 50.035 12.6311 632 126.759 122.693 478.407
1905 0 50.0813 11.9007 596 129.99 121.795 477.695
1906 0 54.0375 13.4906 729 124.114 122.55 476.121
1907 0 56.1987 13.8437 778 123.442 122.829 474.174
1908 0 57.0543 13.2505 756 126.706 123.063 473.081
1909 0 58.0976 12.9954 755 128.266 122.521 473.628
1910 0 60.0763 12.4508 748 130.67 122.596 472.384
1911 0 61.0835 12.6221 771 132.68 123.195 469.888
1912 0 66.2668 13.4758 893 128.838 122.907 469.57
1913 0 68.1542 13.4548 917 128.976 122.569 469.348
1914 0 69.145 12.9727 897 133.543 123.098 467.531
1915 0 73.2099 13.5228 990 132.037 122.968 466.778
1916 0 73.1083 12.9397 946 136.255 123.124 465.998
1917 0 75.1018 13.7014 1029 136.019 122.927 463.58
1918 0 78.2655 13.122 1027 139.101 122.542 462.637
1919 0 79.3196 13.1241 1041 139.69 122.654 462.527
1920 0 82.2431 14.214 1169 137.524 122.849 460.19
1921 0 85.2203 13.5414 1154 140.737 122.801 461.239
1922 0 88.2014 12.7776 1127 143.879 122.562 458.217
1923 0 91.2378 13.5251 1234 142.334 123.061 456.023
1924 0 91.1714 12.7343 1161 144.526 122.364 456.586
1925 0 97.2905 13.0743 1272 143.193 122.649 453.432
1926 0 100.33 13.8344 1388 139.045 122.595 453.672
1927 0 104.244 14.0153 1461 139.996 123.082 449.985
1928 0 106.208 14.4245 1532 140.184 122.827 447.86
1929 0 110.149 13.6179 1500 141.694 122.749 448.679
1930 0 114.235 13.7086 1566 142.273 123.183 446.649
1931 0 116.155 13.3012 1545 145.39 123.028 444.153
1932 0 120.221 14.0159 1685 147.211 122.454 440.404
1933 0 126.219 13.5241 1707 146.881 122.558 439.783
1934 0 129.22 13.5273 1748 150.178 123.117 435.633
1935 0 134.206 13.5985 1825 149.848 122.532 434.636
1936 0 138.315 13.838 1914 149.217 121.994 430.544
1937 0 142.362 14.4561 2058 147.083 122.035 431.478
1938 0 146.323 14.1605 2072 150.176 122.364 426.813
1939 0 150.345 13.9612 2099 150.549 122.202 425.345
1940 0 153.411 12.9391 1985 155.171 122.102 420.855
1941 0 160.145 14.1309 2263 150.89 121.676 415.711
1942 0 165.19 15.0433 2485 147.371 121.372 414.272
1943 0 174.194 14.679 2557 146.468 121.531 412.824
1944 0 180.374 14.6751 2647 146.434 121.861 409.416
1945 0 187.434 13.8929 2604 148.348 121.738 407.297
1946 1 103.126 12.6738 1307 147.073 122.027 447.72
1947 0 105.2 13.1273 1381 142.713 122.55 442.999
1948 0 106.263 11.688 1242 140.038 122.196 441.642
1949 0 109.246 11.5702 1264 134.87 122.025 442.469
1950 0 113.171 12.2116 1382 138.914 121.844 447.195
1951 0 117.081 12.8971 1510 137.11 121.293 443.848
1952 0 121.156 12.6531 1533 134.259 121.744 442.849
1953 0 126.238 12.5239 1581 134.381 121.83 437.399
1954 1 67.1538 10.7663 723 132.122 122.041 468.503
1955 0 72.0853 12.6517 912 135.463 120.818 466.396
1956 0 73.0209 12.7224 929 137.332 120.074 464.183
1957 0 74.0907 12.7681 946 137.242 120.65 464.645
1958 0 77.036 12.0982 932 137.928 120.511 463.742
1959 0 81.0509 13.2139 1071 134.136 120.246 461.148
1960 0 84.0706 13.0367 1096 132.778 119.813 460.431
1961 0 85.0675 13.1543 1119 134.324 120.04 457.419
1962 0 88.1021 13.246 1167 132.073 120.666 457.926
1963 0 91.0921 13.7553 1253 131.202 120.702 455.108
1964 0 93.0686 13.5277 1259 132.956 120.771 453.819
1965 0 94.1473 12.7035 1196 134.624 121.191 454.086
1966 0 99.1379 14.4445 1432 127.248 120.992 453.462
1967 0 100.146 13.3505 1337 132.386 121.664 449.684
1968 0 105.234 13.1231 1381 133.058 121.747 447.356
1969 1 57.0515 11.6912 667 128.213 124.505 472.351
1970 0 60.1433 11.6555 701 125.71 123.341 472.663
1971 0 61.099 12.2915 751 121.142 122.951 470.174
1972 0 60.0576 10.8895 654 120.375 122.931 471.657
1973 0 64.0353 12.3213 789 114.25 123.599 472.109
1974 0 67.1042 11.0425 741 116.314 123.513 469.988
1975 0 67.0778 11.7625 789 115.806 123.466 469.603
1976 0 69.0818 11.0738 765 116.814 123.703 468.292
1977 0 72.0886 10.4593 754 118.505 123.362 465.435
1978 0 74.165 12.1756 903 118.501 123.09 464.153
1979 0 78.1144 12.2897 960 115.88 122.509 465.989
1980 0 78.1758 10.745 840 121.677 122.706 462.745
1981 0 83.1432 11.9553 994 118.019 122.461 461.438
1982 0 84.1691 11.3106 952 121.288 123.738 459.854
1983 0 88.1244 12.7547 1124 115.929 123.739 458.954
1984 0 90.2132 13.1356 1185 117.084 123.569 453.453
1985 0 94.3035 12.0462 1136 118.18 124.021 454.258
1986 1 51.0562 11.8497 605 117.38 124.473 475.048
1987 0 51.0386 11.8146 603 118.922 124.211 472.514
1988 0 54.0458 12.3784 669 119.843 123.658 473.546
1989 0 57.032 12.9401 738 116.78 124.24 472.767
1990 0 58.05 12.4375 722 119.47 124.234 472.645
1991 0 59.0419 11.9576 706 121.637 124.72 472.492
1992 0 61.0578 12.5782 768 120.497 123.809 471.027
1993 0 63.0339 12.4695 786 120.634 123.841 470.248
1994 0 65.0288 13.8708 902 117.54 124.207 469.203
1995 0 66.0514 12.6417 835 121.715 124.438 469.595
1996 0 68.0244 12.863 875 122.471 123.927 467.016
1997 0 71.0654 12.8051 910 122.858 124.129 465.885
1998 0 74.0661 13.6635 1012 120.776 124.114 465.349
1999 0 76.0292 13.5606 1031 120.595 123.949 466.217
2000 0 76.1181 13.6761 1041 121.643 123.388 463.739
2001 0 79.1426 12.7744 1011 124.059 123.53 461.64
2002 0 82.049 13.4066 1100 121.821 123.425 459.816
2003 0 87.0588 13.9331 1213 119.9 123.59 459.46
2004 1 43.0894 11.2789 486 123.695 123.778 480.34
2005 0 44.306 11.1949 496 126.325 124.075 478.861
2006 0 44.0143 12.0188 529 120.238 123.82 479.234
2007 0 45.0602 12.8051 577 115.865 123.357 478.406
2008 0 48.0721 12.5853 605 114.977 123.625 477.808
2009 0 48.0673 12.7946 615 116.325 123.727 476.701
2010 0 51.0577 12.907 659 114.018 123.316 476.58
2011 0 51.0549 13.1036 669 115.689 123.419 475.203
2012 0 53.1224 12.7818 679 115.552 123.613 474.75
2013 0 55.1924 13.1902 728 114.346 123.266 473.479
2014 0 55.1737 12.4335 686 118.404 123.503 473.736
2015 0 56.0506 12.1497 681 120.123 123.068 473.539
2016 0 59.0312 12.9084 762 117.461 122.507 471.76
2017 0 60.0795 12.9495 778 118.56 123.422 471.051
2018 0 63.0892 13.2194 834 116.198 123.524 471.54
2019 0 64.2815 12.8808 828 118.882 123.374 469.344
2020 0 65.208 12.1151 790 120.881 122.773 469.668
2021 0 67.2027 13.4965 907 117.882 122.746 468.34
2022 0 70.1304 12.6336 886 120.433 122.332 468.312
2023 0 73.1327 12.826 938 120.938 122.979 465.532
2024 0 75.1445 13.0016 977 121.164 123.367 464.399
2025 0 77.0151 12.569 968 123.181 123.306 462.512
2026 0 81.1251 13.9661 1133 117.287 123.064 460.599
2027 0 83.0661 12.5563 1043 120.23 123.511 460.903
2028 0 84.1266 11.7918 992 120.648 123.399 460.369
2029 1 46.0387 11.2949 520 120.062 123.81 477.535
2030 0 49.0163 12.4448 610 115.126 123.585 477.351
2031 0 48.0145 11.6631 560 125.302 123.868 475.221
2032 0 54.0568 12.5424 678 119.277 123.658 475.578
2033 0 54.036 12.7693 690 121.27 124.506 474.549
2034 0 57.0567 12.6716 723 121.488 123.441 473.537
2035 0 57.0747 12.7202 726 122.215 122.939 472.358
2036 0 59.0118 12.5737 742 123.058 123.379 472.008
2037 0 60.0304 11.894 714 126.321 123.022 470.699
2038 0 64.0437 12.8194 821 122.848 123.575 469.955
2039 0 67.0523 12.2591 822 124.808 123.554 470.354
2040 0 68.0173 12.6732 862 124.117 123.667 470.182
2041 0 68.0713 11.8846 809 129.588 124.001 467.304
2042 0 72.1121 13.5483 977 124.489 124.398 466.746
2043 0 76.0654 12.555 955 127.29 123.72 465.225
2044 0 77.062 12.5483 967 129.487 123.213 463.009
2045 0 80.0894 13.2851 1064 125.154 123.585 463.882
2046 0 81.1296 13.1765 1069 127.868 123.643 461.596
2047 0 83.0966 12.3711 1028 130.849 123.316 460.053
2048 0 87.1337 13.6113 1186 126.552 123.08 458.177
2049 0 89.1529 11.699 1043 127.616 122.025 459.59
2050 0 89.1467 11.2399 1002 131.21 122.85 457.287
2051 0 93.1987 11.5774 1079 129.593 122.921 457.214
2052 1 50.0726 10.4648 524 127.443 124.073 476.51
2053 0 50.0375 10.692 535 127.555 124.136 476.299
2054 0 51.0266 10.6023 541 129.183 124.24 475.434
2055 0 55.1215 12.7899 705 121.813 123.46 474.016
2056 0 56.0217 12.2988 689 124.177 123.221 472.746
2057 0 57.0375 12.0973 690 125.517 122.633 472.554
2058 0 57.0251 10.8549 619 128.813 123.561 472.485
2059 0 59.0305 11.1807 660 128.968 123.474 471.094
2060 0 63.0814 12.3491 779 122.78 122.529 472.177
2061 0 62.1254 11.2675 700 127.717 122.849 472.014
2062 0 65.1132 11.7795 767 126.96 123.246 469.321
2063 0 69.1056 13.0091 899 122.912 122.957 468.693
2064 0 69.0783 13.1155 906 124.129 123.391 466.534
2065 0 72.0942 12.7195 917 123.846 123.337 466.591
2066 0 74.1492 13.1087 972 123.288 123.151 464.865
2067 0 74.1219 12.4794 925 126.498 123.679 464.022
2068 0 75.1402 12.0042 902 127.674 122.857 462.868
2069 0 80.1438 13.8751 1112 121.726 122.359 460.142
2070 0 82.2825 11.7157 964 128.944 122.646 460.035
2071 0 87.1851 11.8828 1036 126.323 122.182 459.906
2072 0 89.2197 13.9319 1243 122.652 122.901 457.099
2073 0 92.1426 12.3179 1135 128.322 122.686 454.414
2074 0 95.5191 13.3586 1276 125.737 121.389 450.75
2075 0 95.2557 13.0071 1239 117.458 121.978 447.614
2076 0 98.2564 12.3961 1218 119.479 122.765 446.472
2077 0 98.3377 13.2503 1303 114.586 121.89 444.305
2078 1 52.1812 10.7893 563 117.199 121.735 470.108
2079 0 56.1095 11.0855 622 116.285 122.241 468.749
2080 0 56.1088 10.8717 610 118.3 122.403 467.807
2081 0 58.0108 10.3774 602 120.987 122.419 466.877
2082 0 61.0659 10.1038 617 121.068 122.729 466.938
2083 0 60.0448 10.642 639 122.185 122.864 465.598
2084 0 69.0528 9.18138 634 122.905 122.345 466.256
2085 0 68.0616 11.328 771 119.966 122.76 462.143
2086 0 69.0665 11.8002 815 120.059 122.988 460.339
2087 0 72.0203 11.1219 801 122.016 123.293 460.472
2088 0 71.0456 11.4152 811 122.805 123.16 458.467
2089 0 75.085 11.4404 859 123.078 122.26 457.687
2090 0 76.0489 10.9535 833 126.501 122.345 457.041
2091 0 80.0664 12.2398 980 122.923 122.691 454.832
2092 0 80.1109 10.81 866 127.957 122.567 455.327
2093 0 85.0442 11.7233 997 124.635 122.783 454.735
2094 0 85.0388 11.5006 978 130.037 122.257 455.277
2095 0 91.1556 10.8386 988 127.819 122.044 451.709
2096 1 47.1044 9.97784 470 114.279 121.532 476.145
2097 0 46.0829 10.7415 495 114.069 122.214 472.929
2098 0 48.0662 10.86 522 113.525 121.404 471.23
2099 0 51.2097 9.31464 477 115.589 121.545 472.786
2100 0 52.0769 11.387 593 112.305 120.836 470.46
2101 0 54.0913 10.131 548 115.608 120.903 469.6
2102 0 55.1405 11.244 620 114.335 121.276 469.627
2103 0 58.1275 10.563 614 116.275 121.111 468.932
2104 0 59.0582 11.2939 667 114.931 120.934 467.742
2105 0 59.1137 11.148 659 115.964 121.187 466.985
2106 0 60.1173 11.8601 713 115.509 120.856 466.774
2107 0 63.1176 10.8844 687 118.099 120.803 465.721
2108 0 65.046 10.0544 654 118.875 120.945 465.142
2109 0 68.0703 12.1198 825 113.933 121.639 463.342
2110 0 70.0453 12.2921 861 112.841 121.064 463.521
2111 0 71.132 12.1746 866 115.461 121.717 461.777
2112 0 73.1129 12.0772 883 115.24 121.689 461.807
2113 0 78.1525 13.0002 1016 111.525 121.216 460.711
2114 0 76.1341 11.5454 879 117.425 122.026 459.094
2115 0 81.0586 12.4355 1008 114.455 121.774 455.153
2116 0 84.1171 11.8169 994 117.002 121.95 454.446
2117 0 86.094 12.0217 1035 117.224 121.425 453.304
2118 0 87.1485 11.6353 1014 121.27 121.508 451.239
2119 0 92.1487 11.731 1081 122.758 120.687 449.992
2120 0 96.1671 12.7175 1223 118.799 121.28 447.767
2121 0 99.2311 14.5317 1442 114.825 121.58 444.755
2122 1 54.1579 9.95237 539 116.519 121.948 467.215
2123 0 54.1909 10.7214 581 118.105 122.153 469.898
2124 0 56.2171 11.7758 662 124.208 122.885 473.979
2125 0 59.0862 12.7102 751 121.85 122.369 473.273
2126 0 60.1648 12.1832 733 121.853 122.476 472.584
2127 0 64.1118 13.1021 840 118.033 122.395 471.282
2128 0 65.1206 11.8703 773 121.305 122.268 469.392
2129 0 68.1258 12.9613 883 117.757 121.934 467.649
2130 0 68.1172 12.5666 856 118.246 122.144 467.689
2131 0 73.1257 12.6631 926 118.042 121.753 466.058
2132 0 73.1513 12.6177 923 119.22 121.74 465.555
2133 0 75.2822 12.8981 971 118.348 122.011 463.064
2134 0 80.1662 13.6342 1093 115.317 122.146 460.777
2135 0 81.2565 13.562 1102 117.139 122.091 459.72
2136 0 84.219 12.8831 1085 118.923 121.913 459.655
2137 0 88.2669 12.3602 1091 120.288 122.159 457.319
2138 0 88.2096 12.8444 1133 120.403 122.064 456.28
2139 0 91.2173 13.1335 1198 120.521 121.865 453.702
2140 0 96.2648 13.3278 1283 120.427 121.891 453.907
2141 0 98.2038 12.9119 1268 124.869 121.86 452.651
2142 0 100.273 13.4234 1346 124.999 121.69 449.684
2143 0 103.254 12.4645 1287 127.343 121.94 451.562
2144 1 53.1948 11.1665 594 126.547 121.744 475.559
2145 0 55.113 12.048 664 125.182 121.158 474.402
2146 0 59.0761 13.1525 777 121.501 120.458 473.475
2147 0 60.0776 12.5005 751 123.913 120.015 471.108
2148 0 61.0965 12.5866 769 123.481 120.489 472.243
2149 0 62.0602 13.6641 848 122.108 120.329 468.56
2150 0 63.1245 12.8318 810 125.184 119.816 467.807
2151 0 67.0779 12.9104 866 122.823 120.21 468.328
2152 0 68.1246 12.8441 875 123.387 120.984 467.771
2153 0 71.0553 12.9054 917 123.463 120.423 466.533
2154 0 72.1294 12.8103 924 123.926 120.425 464.328
2155 0 74.1459 13.6892 1015 121.993 120.358 462.259
2156 0 78.1607 13.5746 1061 121.34 120.997 462.818
2157 0 81.1373 13.2368 1074 120.949 120.856 462.446
2158 0 81.2147 12.4485 1011 124.443 120.871 460.152
2159 0 84.1804 12.9246 1088 122.842 120.488 458.467
2160 0 88.0769 13.4428 1184 120.875 120.743 455.895
2161 0 91.0836 12.7136 1158 122.573 120.402 457.117
2162 0 95.1084 13.3427 1269 119.853 120.654 454.433
2163 0 97.1425 13.6706 1328 119.532 120.382 453.505
2164 1 194.361 12.4974 2429 129.779 120.678 406.488
2165 1 103.089 12.3195 1270 121.903 119.974 453.409
2166 1 53.0829 10.6814 567 125.698 120.328 473.787
2167 0 55.0614 12.0229 662 115.912 119.61 473.257
2168 0 55.016 10.8696 598 119.769 120.087 475.59
2169 0 57.0354 11.5718 660 118.044 119.273 472.741
2170 0 60.0272 12.2278 734 115.486 119.884 471.444
2171 0 61.1732 10.691 654 119.398 120.006 471.232
2172 0 64.1147 10.8867 698 118.868 120.054 469.653
2173 0 69.1315 12.3099 851 113.801 120.249 469.605
2174 0 71.0827 12.3659 879 115.253 120.094 467.064
2175 0 74.1641 12.0948 897 117.095 120.049 466.582
2176 0 75.0486 12.6318 948 115.316 120.465 467.759
2177 0 79.2312 12.8611 1019 116.481 120.829 463.813
2178 0 79.2207 11.1839 886 121.607 120.245 464.149
2179 0 83.1901 12.802 1065 118.606 120.158 459.376
2180 0 87.3431 13.0176 1137 117.265 120.888 461.784
2181 1 47.3551 11.4454 542 121.341 121.138 476.181
2182 0 49.388 12.2904 607 117.509 120.858 476.829
2183 0 47.0729 11.9602 563 121.657 119.451 476.144
2184 0 52.0621 11.9281 621 119.884 119.631 475.955
2185 0 54.1122 11.4946 622 120.768 120.51 475.407
2186 0 55.0565 11.9332 657 119.466 118.945 472.708
2187 0 55.0461 11.2269 618 121.56 119.094 472.814
2188 0 57.1208 11.0818 633 122.084 119.957 473.978
2189 0 60.096 12.6464 760 117.472 119.771 471.941
2190 0 62.0352 11.7514 729 119.185 119.313 472.099
2191 0 64.0775 12.875 825 117.903 119.771 471.509
2192 0 67.0993 13.1447 882 116.497 118.904 468.149
2193 0 67.0448 12.7228 853 118.682 119.098 467.89
2194 0 70.0497 13.0336 913 116.025 119.859 468.189
2195 0 72.0894 13.081 943 117.503 119.56 465.681
2196 0 73.0582 13.4277 981 116.15 119.73 465.477
2197 0 76.0552 13.6874 1041 115.112 119.818 463.358
2198 0 76.0512 13.412 1020 115.159 119.504 461.546
2199 0 78.0961 12.5743 982 116.744 119.282 463.541
2200 0 80.0436 12.9929 1040 117.433 119.769 459.58
2201 0 85.0322 14.6885 1249 111.721 119.203 458.648
2202 0 88.2036 13.0494 1151 115.121 119.047 458.068
2203 0 92.0566 13.4591 1239 113.697 119.027 456.28
2204 0 93.1157 13.102 1220 114.925 119.442 455.093
2205 1 50.0153 11.5565 578 118.275 119.867 475.192
2206 0 51.0212 11.1914 571 119.546 119.571 475.424
2207 0 53.0433 12.9328 686 110.188 119.776 474.057
2208 0 55.0594 13.8033 760 105.332 120.487 473.439
2209 0 53.1191 11.8978 632 111.772 119.585 474.527
2210 0 54.0433 11.6573 630 114.249 119.762 472.851
2211 0 56.0248 11.1736 626 113.569 119.942 474.642
2212 0 58.0714 10.1427 589 114.121 122.919 474.944
2213 0 61.0381 11.8451 723 110.58 122.823 473.502
2214 0 63.0513 12.1013 763 110.235 122.311 470.666
2215 0 65.0791 12.7383 829 108.574 121.574 469.959
2216 0 68.0812 11.5157 784 109.783 122.304 471.134
2217 0 69.1176 11.994 829 109.9 122.062 466.65
2218 0 73.1578 12.2338 895 108.717 122.562 465.533
2219 0 73.138 11.95 874 110.749 122.005 465.024
2220 0 76.1655 12.0921 921 109.826 122.243 464.098
2221 0 77.1292 11.4483 883 113.216 121.869 460.487
2222 0 82.1483 12.0514 990 111.098 121.505 459.465
2223 0 85.08 12.5529 1068 110.346 121.569 458.291
2224 0 88.2642 12.3719 1092 110.314 121.41 457.662
2225 0 90.1377 11.6821 1053 111.593 122.195 458.862
2226 1 47.0387 10.8421 510 111.604 122.735 477.586
2227 0 47.0629 11.9415 562 111.534 122.591 476.361
2228 0 50.1356 12.2468 614 109.057 121.671 474.347
2229 0 53.2362 12.097 644 112.683 121.287 474.637
2230 0 51.1697 11.9407 611 105.565 121.565 475.956
2231 0 49.0646 11.0874 544 110.691 121.818 474.224
2232 0 54.2306 12.244 664 106.946 121.398 474.175
2233 0 53.1262 9.63744 512 113.799 121.803 475.33
2234 0 57.2137 11.2036 641 110.437 122.055 474.785
2235 0 58.1813 12.7361 741 108.109 121.976 472.331
2236 0 60.1183 11.993 721 109.706 122.269 472.627
2237 0 63.2447 12.5386 793 108.522 121.383 470.876
2238 0 65.0752 13.3845 871 106.766 120.935 470.556
2239 0 67.062 12.1678 816 110.261 121.681 467.763
2240 0 70.1164 12.2796 861 109.065 121.708 466.649
2241 0 71.0839 12.8158 911 109.357 121.4 466.066
2242 0 73.1857 10.7125 784 114.46 121.532 465.722
2243 0 77.1959 13.4075 1035 108.785 121.045 462.289
2244 0 77.1677 11.2741 870 114.351 121.63 462.79
2245 0 84.1533 12.8218 1079 109.247 121.14 462.867
2246 1 44.1682 11.343 501 110.92 122.236 480.501
2247 0 44.0802 11.3203 499 112.403 122.19 480.327
2248 0 47.0693 12.1735 573 111.339 121.675 478.955
2249 0 49.0893 13.0782 642 108.777 121.815 478.905
2250 0 49.1577 13.3652 657 109.324 121.42 477.376
2251 0 50.1042 12.953 649 110.365 121.502 477.864
2252 0 53.1346 12.6095 670 110.127 121.59 477.181
2253 0 53.1782 12.1102 644 112.921 121.618 476.402
2254 0 55.1246 12.118 668 114.356 121.88 474.94
2255 0 56.0812 11.84 664 115.402 122.151 474.708
2256 0 60.1268 13.4882 811 110.709 122.322 473.482
2257 0 60.0623 13.1031 787 113.274 120.827 472.507
2258 0 62.1338 13.3744 831 112.533 121.298 472.816
2259 0 64.0689 13.1265 841 113.9 121.605 474.881
2260 0 66.0675 13.3954 885 113.564 121.389 471.245
2261 0 67.1765 12.7872 859 116.406 120.602 471.913
2262 0 71.2129 13.7335 978 113.087 120.347 473.243
2263 0 73.1259 13.8391 1012 112.643 119.709 472.944
2264 0 75.1737 13.9676 1050 115.125 119.484 470.923
2265 0 78.3015 13.7418 1076 115.523 118.57 470.279
2266 0 81.2157 13.5811 1103 117.821 118.544 469.85
2267 0 83.2371 14.2004 1182 118.525 118.683 468.745
2268 0 85.3528 14.856 1268 115.834 118.045 467.403
2269 0 91.2968 14.9512 1365 115.16 117.794 467.468
2270 0 92.2397 14.6575 1352 117.237 117.285 464.97
2271 0 91.1502 13.4832 1229 122.085 117.223 463.696
2272 0 96.1196 13.3792 1286 118.376 117.17 462.554
2273 1 51.1338 10.5605 540 122.096 117.7 482.446
2274 0 53.0232 12.4662 661 114.873 116.769 481.522
2275 0 57.0284 12.3447 704 110.49 116.375 481.641
2276 0 57.0803 11.5276 658 113.752 116.456 481.05
2277 0 58.0449 12.542 728 113.758 116.413 479.051
2278 0 61.0276 13.4366 820 110.921 116.093 478.448
2279 0 62.0946 12.9319 803 114.083 115.741 477.984
2280 0 65.0697 12.1255 789 115.256 115.605 476.782
2281 0 67.1228 12.6782 851 113.912 115.031 474.046
2282 0 70.143 11.8187 829 115.791 115.602 475.315
2283 0 73.0965 11.9568 874 114.73 115.466 474.773
2284 0 75.148 11.9498 898 116.272 114.931 470.847
2285 0 80.1439 11.5293 924 117.177 115.058 468.489
2286 0 83.0585 12.136 1008 115.493 115.658 468.578
2287 0 86.0636 12.8161 1103 114.364 114.967 466.227
2288 1 43.0616 11.3558 489 112.094 114.796 486.423
2289 0 49.0184 11.1591 547 109.356 114.669 488.36
2290 0 49.0782 11.064 543 110.422 115.11 487.891
2291 0 50.0528 11.9274 597 108.235 115.774 489.283
2292 0 52.03 11.1859 582 110.328 115.45 487.302
2293 0 53.0307 11.0879 588 110.427 115.561 487.145
2294 0 56.0454 12.8646 721 106.293 115.818 486.918
2295 0 56.0353 12.6527 709 113.509 114.8 491.32
2296 0 56.0766 10.5213 590 118.546 115.22 489.375
2297 0 61.02 12.9957 793 111.604 115.274 487.802
2298 0 62.0261 10.7697 668 115.657 114.954 487.395
2299 0 65.0617 11.3892 741 113.857 114.483 485.246
2300 0 67.059 11.9447 801 113.18 115.056 481.007
2301 0 70.1124 11.5244 808 113.396 114.889 481.282
2302 0 71.0424 11.1905 795 113.873 115.174 481.702
2303 0 76.1575 12.8549 979 110.097 114.578 478.187
2304 0 78.2085 11.9424 934 112.276 114.692 476.394
2305 0 80.0984 12.4097 994 112.046 115.168 475.552
2306 0 83.3242 11.2692 939 114.671 114.623 474.071
2307 0 85.1255 11.1247 947 114.997 114.493 472.367
2308 1 44.0282 9.49392 418 108.789 114.73 488.67
2309 0 47.0684 10.6441 501 108.246 114.605 486.371
2310 0 48.0492 12.0502 579 114.779 114.036 488.563
2311 0 49.0639 11.0061 540 116.911 113.767 488.676
2312 0 53.1437 11.7418 624 115.117 113.484 487.155
2313 0 55.0892 13.342 735 110.163 113.616 485.967
2314 0 56.0642 11.7544 659 114.895 114.032 484.653
2315 0 57.0994 12.417 709 113.873 113.832 483.353
2316 0 58.1592 12.9128 751 113.374 114.077 483.266
2317 0 63.2323 12.5885 796 112.33 113.716 482.741
2318 0 63.1207 12.1672 768 115.348 114.142 479.793
2319 0 65.2602 13.0554 852 113.831 114.415 479.52
2320 0 68.2329 12.3694 844 116.255 114.531 478.698
2321 0 68.0412 13.0656 889 114.334 113.755 475.852
2322 0 70.1577 13.0278 914 115.363 114.193 474.147
2323 0 73.1014 14.3089 1046 112.018 114.547 473.583
2324 0 74.1084 13.1024 971 116.678 114.945 471.222
2325 0 79.1113 13.8918 1099 113.934 114.338 471.336
2326 0 80.0633 13.3894 1072 116.827 114.599 468.469
2327 0 82.0818 13.4866 1107 117.162 114.444 465.457
2328 0 86.0841 13.7075 1180 116.9 115.129 463.634
2329 0 90.2275 14.9068 1345 113.241 115.178 463.037
2330 0 93.2637 13.9282 1299 116.403 114.906 458.377
2331 0 95.1931 14.0767 1340 116.34 115.876 459.715
2332 1 48.1214 10.4943 505 119.372 114.988 481.436
2333 0 49.0404 11.0725 543 117.304 115.274 479.715
2334 0 51.0498 10.48 535 108.598 116.11 481.65
2335 0 53.0851 11.4156 606 107.271 115.437 481.068
2336 0 52.0807 10.4837 546 111.315 116.136 476.777
2337 0 57.0665 10.4615 597 109.601 116.553 477.399
2338 0 57.0775 11.5632 660 109.38 116.229 475.842
2339 0 61.0367 10.3708 633 112.052 116.338 474.111
2340 0 64.0535 11.1157 712 109.854 116.522 474.806
2341 0 64.0739 11.4867 736 110.784 115.739 472.812
2342 0 67.1406 11.7515 789 110.463 116.324 470.833
2343 0 70.1103 12.081 847 110.243 116.47 470.654
2344 0 71.1046 11.8276 841 111.85 116.853 469.275
2345 0 74.0496 11.0331 817 114.625 116.703 468.23
2346 0 77.0976 12.9187 996 112.77 116.701 464.542
2347 0 78.1461 12.8221 1002 113.673 116.591 463.253
2348 0 83.0946 13.262 1102 113.06 116.05 460.649
2349 0 86.0574 13.7931 1187 112.722 116.104 460.908
2350 0 87.0689 13.0357 1135 115.554 116.933 459.731
2351 0 90.0694 13.0011 1171 117.506 117.247 457.237
2352 0 93.1286 15.0222 1399 124.637 116.687 460.024
2353 0 95.1334 15.431 1468 124.858 116.229 455.548
2354 0 97.1405 13.6709 1328 131.063 117.034 457.443
2355 0 101.117 14.7552 1492 128.257 116.979 453.882
2356 0 104.11 14.5231 1512 129.572 117.298 450.496
2357 0 107.062 13.8424 1482 132.775 117.399 452.598
2358 0 111.2 13.687 1522 134.884 118.357 450.75
2359 1 61.0583 11.661 712 133.916 120.249 474.899
2360 0 58.0328 10.9766 637 130.386 119.405 468.75
2361 0 62.0505 11.813 733 117.902 118.648 470.115
2362 0 66.0692 12.4718 824 115.313 118.442 469.329
2363 0 66.07 12.2143 807 117.312 118.683 467.388
2364 0 69.1171 12.3414 853 117.769 119.013 465.61
2365 0 70.1132 12.3657 867 119.152 118.699 463.931
2366 0 71.0941 11.9701 851 121.034 118.989 462.912
2367 0 76.0429 13.0847 995 117.361 119.117 462.178
2368 0 78.161 12.2312 956 118.153 118.77 461.014
2369 0 80.1109 11.7837 944 121.214 118.653 457.68
2370 0 83.1104 12.0442 1001 121.196 118.584 457.473
2371 0 86.0861 11.6744 1005 121.287 119.095 456.075
2372 0 88.1073 13.0523 1150 118.075 119.003 453.608
2373 0 91.1069 12.4359 1133 119.298 119.085 451.682
2374 0 93.0477 12.0798 1124 120.535 119.294 452.462
2375 0 99.1289 12.6502 1254 116.805 119.478 450.394
2376 0 101.074 11.8428 1197 119.316 119.754 450.366
2377 0 104.182 12.1807 1269 117.887 119.343 445.879
2378 1 56.0521 10.7043 600 114.332 120.363 471.24
2379 0 57.0344 11.7999 673 119.664 121.288 470.575
2380 0 60.0915 11.7987 709 129.818 122.061 472.103
2381 0 64.0658 12.9398 829 126.01 121.117 471.306
2382 0 67.0632 13.4947 905 124.518 121.388 469.492
2383 0 67.1005 12.3248 827 127.503 121.472 470.559
2384 0 71.058 12.8346 912 126.606 121.641 467.861
2385 0 73.2096 11.5559 846 128.9 121.534 469.836
2386 0 75.1123 12.5678 944 128.006 121.343 464.8
2387 0 76.1254 12.3086 937 129.652 121.841 464.618
2388 0 80.1089 12.6952 1017 128.021 121.401 463.08
2389 0 80.0774 11.339 908 132.003 121.274 461.13
2390 0 85.0732 12.5304 1066 128.039 121.257 460.485
2391 0 90.1497 12.6013 1136 125.831 121.54 459.626
2392 0 90.1626 11.9562 1078 129.45 121.417 459.404
2393 0 94.0885 14.0506 1322 123.722 120.434 457.148
2394 0 98.1166 12.7603 1252 126.942 120.725 457.789
2395 0 101.147 13.6435 1380 124.575 120.521 454.594
2396 1 52.3229 11.9451 625 123.582 119.365 471.499
2397 0 54.2203 11.6008 629 112.626 119.297 473.137
2398 0 55.0969 11.3618 626 112.388 119.42 472.227
2399 0 56.1524 12.1811 684 114.472 119.028 475.139
2400 0 60.1277 12.5067 752 113.101 119.241 475.254
2401 0 59.1083 11.572 684 117.088 119.442 474.566
2402 0 62.1684 12.4018 771 109.126 120.497 469.543
2403 0 64.113 11.4329 733 110.967 120.386 472.052
2404 0 65.1286 10.8247 705 112.556 119.53 470.526
2405 0 69.1686 11.9418 826 111.443 119.826 467.678
2406 0 71.1394 12.2998 875 110.155 120.001 469.395
2407 0 73.1613 11.7139 857 112.708 120.488 468.355
2408 0 74.287 12.3036 914 113.357 120.196 466.173
2409 0 74.1585 12.0687 895 115.468 119.781 465.844
2410 0 77.1359 12.0437 929 115.753 120.245 464.113
2411 0 82.2225 12.8189 1054 112.53 119.926 463.919
2412 0 84.2009 12.2802 1034 115.124 120.191 460.993
2413 0 87.2233 13.5973 1186 111.701 120.103 459.858
2414 0 90.2761 13.3258 1203 112.858 119.747 459.786
2415 0 92.0834 12.8036 1179 114.948 119.771 457.451
2416 0 95.1689 13.2922 1265 114.398 119.801 456.031
2417 0 99.2206 13.2735 1317 117.762 119.452 454.269
2418 1 51.1879 12.4053 635 113.926 120.156 478.143
2419 0 52.1176 12.088 630 119.776 120.822 474.63
2420 0 53.0955 11.5076 611 122.388 120.578 473.879
2421 0 55.0874 11.7631 648 121.099 120.875 475.46
2422 0 57.0886 12.9273 738 116.107 120.992 475.423
2423 0 60.2015 12.9731 781 115.026 120.659 473.682
2424 0 60.0943 12.0145 722 118.084 120.536 471.152
2425 0 65.2713 13.2217 863 115.603 120.401 469.556
2426 0 68.2251 12.6493 863 117.073 120.924 469.27
2427 0 68.2406 12.2654 837 120.486 120.571 465.652
2428 0 72.3059 13.0003 940 119.313 120.764 467.935
2429 0 74.3155 12.4873 928 122.65 120.791 463.459
2430 0 77.2181 13.2611 1024 121.1 120.362 462.336
2431 0 79.3851 13.2393 1051 121.135 120.599 459.538
2432 0 82.3609 13.3923 1103 120.466 119.969 459.158
2433 0 85.2263 13.5052 1151 120.153 120.166 458.229
2434 0 88.4409 13.4779 1192 120.384 120.079 456.451
2435 0 90.4193 12.2651 1109 122.934 119.461 456.641
2436 0 94.3146 13.5292 1276 119.509 120.002 453.625
2437 0 97.3613 13.3318 1298 120.429 120.085 453.216
2438 0 100.263 13.4247 1346 120.527 120.011 450.589
2439 0 103.259 12.9868 1341 122.001 119.907 449.473
2440 1 56.215 12.0964 680 116.09 120.229 474.907
2441 0 57.1527 11.723 670 117.297 120.384 473.857
2442 0 55.0637 11.6592 642 120.558 119.282 473.46
2443 0 58.0626 11.4187 663 121.278 119.299 473.315
2444 0 61.1903 11.6522 713 121.725 119.107 470.135
2445 0 63.0855 11.7301 740 122.086 118.581 468.969
2446 0 65.0976 11.6748 760 122.688 118.872 468.543
2447 0 69.153 12.306 851 119.481 118.879 467.738
2448 0 69.1412 11.8164 817 122.896 119.159 465.268
2449 0 73.16 13.368 978 120.349 118.902 463.511
2450 0 76.3522 12.4554 951 122.204 119.008 462.331
2451 0 76.2307 12.2654 935 124.784 119.028 461.741
2452 0 81.3276 13.4518 1094 120.58 118.41 462.026
2453 0 84.2896 12.4333 1048 123.645 118.967 460.698
2454 0 88.3407 13.4479 1188 121.168 119.065 458.008
2455 0 91.2021 13.6291 1243 121.601 119.814 455.279
2456 1 47.2452 12.5092 591 119.601 119.416 476.714
2457 0 49.1145 12.3792 608 120.411 119.362 475.577
2458 0 49.1221 13.2731 652 119.325 120.008 473.794
2459 0 52.2376 12.5006 653 119.436 118.951 474.77
2460 0 53.1591 13.5254 719 118.004 118.631 471.567
2461 0 56.1108 13.206 741 118.344 119.165 472.1
2462 0 57.1799 13.3613 764 117.844 119.022 472.085
2463 0 60.0824 13.0321 783 119.533 119.829 471.151
2464 0 60.1874 13.89 836 118.189 119.65 468.104
2465 0 64.06 12.7224 815 118.611 119.866 468.412
2466 0 67.1754 14.0974 947 116.105 119.646 467.501
2467 0 68.2179 13.7647 939 119.263 119.793 467.132
2468 0 71.2355 13.0413 929 121.705 119.489 464.11
2469 0 73.2897 13.3989 982 121.739 120.264 463.039
2470 0 75.264 13.7117 1032 121.728 120.277 462.497
2471 0 77.3207 13.5151 1045 120.509 119.953 461.116
2472 0 77.2525 12.5951 973 124.016 119.712 458.737
2473 0 80.3423 12.0236 966 124.764 119.927 458.401
2474 0 86.2737 12.8197 1106 121.325 119.394 457.412
2475 0 90.2964 13.5997 1228 119.032 119.026 454.546
2476 0 94.3876 13.9531 1317 118.164 119.625 452.317
2477 0 96.2578 14.108 1358 118.879 119.264 451.384
2478 0 100.216 14.5186 1455 119.016 119.224 447.035
2479 1 57.262 11.9975 687 121.013 119.753 470.734
2480 0 56.2095 13.7877 775 122.452 119.956 466.983
2481 0 58.1324 14.0369 816 120.688 118.926 469.819
2482 0 59.2348 12.6108 747 125.548 120.807 471.49
2483 0 64.1467 14.1083 905 121.033 120.76 470.433
2484 0 65.308 13.4746 880 123.861 120.53 469.613
2485 0 66.1887 13.2047 874 124.84 120.301 467.585
2486 0 69.3177 12.9549 898 125.356 120.676 467.401
2487 0 72.1694 13.0665 943 124.741 120.352 464.724
2488 0 75.2336 13.2255 995 123.974 120.602 463.663
2489 0 78.3024 13.9842 1095 122.417 120.25 461.533
2490 0 81.2279 14.2562 1158 121.768 120.177 459.976
2491 0 83.2542 12.9723 1080 125.377 120.721 459.952
2492 0 87.3283 13.3061 1162 123.858 121.133 459.575
2493 0 88.2347 12.8294 1132 127.445 120.862 456.411
2494 0 92.3107 12.8154 1183 127.674 120.17 453.238
2495 1 51.0746 11.4147 583 123.861 121.091 474.945
2496 0 52.1921 12.3007 642 112.481 120.614 474.933
2497 0 53.1474 10.9883 584 109.313 119.678 473.01
2498 0 55.1262 12.3172 679 107.29 120.115 470.988
2499 0 57.1939 12.9909 743 108.37 119.514 472.898
2500 0 57.1088 11.4868 656 112.627 119.982 471.657
2501 0 59.1741 11.1028 657 112.588 120.575 467.244
2502 0 60.0972 11.7809 708 111.73 119.794 465.956
2503 0 64.0777 13.0467 836 110.878 119.665 470.135
2504 0 65.1452 12.7715 832 111.306 120.078 468.445
2505 0 66.1062 11.6328 769 115.186 119.913 466.401
2506 0 70.1818 11.3705 798 112.766 120.361 461.326
2507 0 72.0829 11.7642 848 110.886 120.441 455.231
2508 0 73.1078 11.955 874 111.431 120.439 453.223
2509 0 77.2319 12.3913 957 110.907 120.505 451.829
2510 0 77.1431 11.1352 859 115.47 120.359 451.591
2511 0 82.3602 11.4983 947 114.257 120.38 452.321
2512 0 82.2587 11.634 957 115.807 120.098 447.335
2513 0 87.3374 11.9651 1045 113.952 119.909 446.338
2514 1 48.2185 10.2036 492 112.043 120.589 469.002
2515 0 51.0857 11.9994 613 107.525 120.369 469.511
2516 0 52.0852 10.5212 548 112.498 120.175 467.788
2517 0 53.1103 12.0881 642 107.628 120.005 469.746
2518 0 53.0535 10.9135 579 110.929 120.39 469.845
2519 0 56.0597 11.9694 671 109.224 120.554 469.49
2520 0 55.1143 11.3219 624 112.8 120.78 467.038
2521 0 58.0525 11.0762 643 113.411 120.207 467.241
2522 0 60.1733 10.9351 658 114.179 120.629 466.907
2523 0 61.0723 11.8712 725 112.65 120.23 465.599
2524 0 62.0307 12.7518 791 112.535 120.876 464.063
2525 0 61.0727 12.3951 757 115.816 120.336 461.766
2526 0 65.0389 11.9467 777 116.801 120.627 461.856
2527 0 68.084 12.6755 863 114.962 121.053 460.947
2528 0 67.0227 12.6077 845 116.612 121.086 461.089
2529 0 73.0488 13.6895 1000 112.66 121.541 458.571
2530 0 73.0648 12.9748 948 117.04 120.564 457.891
2531 0 76.0668 13.4619 1024 116.267 120.55 455.766
2532 0 79.064 13.2551 1048 117.157 120.937 454.423
2533 0 81.1362 12.7317 1033 119.493 120.712 453.387
2534 0 82.0939 14.1911 1165 116.193 121.514 452.644
2535 0 85.125 13.4743 1147 119.535 120.996 449.869
2536 0 88.1647 13.815 1218 118.165 120.699 450.315
2537 0 91.12 13.7621 1254 118.279 121.061 448.214
2538 0 94.1132 12.5593 1182 121.84 120.689 447.031
2539 0 96.0815 13.4886 1296 119.912 120.721 444.516
2540 0 98.0468 12.8918 1264 122.544 120.906 442.346
2541 0 103.049 13.6246 1404 119.485 120.662 443.08
2542 1 56.1392 11.2934 634 118.992 120.888 464.595
2543 0 60.0199 10.6631 640 120.294 121.237 464.472
2544 0 62.1118 12.6385 785 122.884 121.548 462.913
2545 0 64.1225 12.5073 802 124.69 120.779 462.067
2546 0 63.0943 10.9519 691 128.729 121.512 462.465
2547 0 68.1462 12.077 823 124.705 121.555 460.243
2548 0 70.1676 11.7291 823 125.236 121.909 459.235
2549 0 72.1823 11.5679 835 125.793 121.208 458.259
2550 0 74.1263 12.074 895 125.086 121.249 454.925
2551 0 77.1493 12.4693 962 123.536 121.52 456.236
2552 0 81.1897 12.7233 1033 121.932 121.816 455.967
2553 0 84.1655 12.9507 1090 120.219 121.59 453.784
2554 0 85.2049 11.7247 999 123.037 121.567 454.12
2555 0 88.1568 12.1828 1074 122.821 121.918 451.204
2556 0 91.2878 12.718 1161 120.701 120.491 449.706
2557 0 97.246 13.2036 1284 112.052 121.129 446.666
2558 0 99.1801 12.3613 1226 114.874 121.493 445.341
2559 0 101.209 12.5186 1267 115.618 121.187 442.342
2560 0 106.327 12.9789 1380 113.35 121.77 442.085
2561 0 109.281 11.9875 1310 115.573 122.058 442.447
2562 1 56.187 10.732 603 112.902 121.418 461.367
2563 0 56.2303 9.83455 553 121.66 121.174 457.794
2564 0 58.1509 9.83647 572 125.367 121.36 457.881
2565 0 63.1346 11.8635 749 110.603 121.935 461.872
2566 0 64.1603 11.3933 731 113.155 121.555 459.43
2567 0 68.1787 12.0419 821 110.715 121.647 461.281
2568 0 68.1533 11.2394 766 113.819 121.129 461.059
2569 0 73.0891 13.1757 963 109.006 121.327 460.027
2570 0 75.1453 12.5623 944 111.389 121.489 458.943
2571 0 77.1276 12.6414 975 112.068 121.556 459.014
2572 0 76.1991 11.7456 895 116.12 121.615 456.096
2573 0 82.0702 12.9889 1066 112.75 121.626 455.321
2574 0 82.0705 12.1968 1001 115.825 121.916 454.957
2575 0 88.0998 12.8604 1133 112.07 121.816 452.935
2576 0 89.1321 13.0256 1161 112.411 121.345 451.673
2577 0 92.1885 13.2229 1219 111.897 121.216 449.358
2578 0 95.1416 13.0753 1244 112.057 121.291 448.931
2579 0 98.1217 13.575 1332 111.624 120.938 446.143
2580 0 102.15 13.255 1354 112.764 121.338 445.417
2581 0 103.086 11.99 1236 117.529 120.973 442.308
2582 1 58.1014 10.4128 605 111.607 120.197 465.55
2583 0 59.0891 10.7803 637 112.666 120.71 466.232
2584 0 61.0643 12.1511 742 110.544 121.899 466.639
2585 0 64.1426 11.6927 750 110.679 121.957 466.655
2586 0 66.1289 12.1883 806 109.764 121.844 462.493
2587 0 67.1729 11.1652 750 113.66 122.119 463.167
2588 0 67.1592 11.3015 759 115.925 122.271 459.567
2589 0 72.1779 11.9704 864 114.498 122.4 458.784
2590 0 75.1686 11.2813 848 115.875 122.163 457.928
2591 0 77.1508 12.3135 950 114.389 121.972 457.775
2592 0 79.1373 11.8023 934 117.074 121.919 455.474
2593 0 84.2569 12.2364 1031 115.468 122.28 454.01
2594 0 84.2382 12.8564 1083 116.191 122.153 452.987
2595 0 87.2324 12.3119 1074 117.768 122.273 453.954
2596 0 88.2142 13.0705 1153 117.173 121.93 450.154
2597 0 93.2517 12.3108 1148 118.883 122.093 450.533
2598 0 96.2346 12.9267 1244 118.349 121.783 448.429
2599 0 99.2023 11.532 1144 122.74 121.527 448.015
2600 0 102.197 11.9769 1224 121.324 121.833 446.439
2601 0 106.241 11.4739 1219 123.697 121.838 443.922
2602 0 108.104 12.3492 1335 123.194 120.853 443.429
2603 1 60.094 9.90116 595 115.461 122.318 469.071
2604 0 62.1702 9.84394 612 116.691 121.797 465.201
2605 0 64.223 11.3666 730 114.115 121.978 464.204
2606 0 65.0308 10.6565 693 113.502 122.012 463.203
2607 0 67.0894 11.2387 754 110.919 121.558 462.847
2608 0 70.2226 11.4493 804 107.715 121.917 461.108
2609 0 70.1663 10.8457 761 109.431 122.139 457.54
2610 0 73.1914 8.92181 653 113.397 121.943 457.1
2611 0 76.1787 11.7881 898 106.908 121.643 454.731
2612 0 78.1975 10.4607 818 109.612 121.768 453.68
2613 0 80.1796 10.8008 866 108.572 121.6 452.895
2614 0 84.1538 12.0969 1018 104.335 122.104 455.507
2615 0 85.1595 11.6135 989 107.182 122.165 449.265
2616 0 88.1471 12.5472 1106 105.24 121.816 452.603
2617 0 91.2067 10.7229 978 109.443 121.173 450.583
2618 0 95.1636 10.4242 992 108.741 121.704 450.043
2619 0 96.0779 11.3658 1092 107.001 121.217 446.261
2620 0 99.174 11.6462 1155 105.942 120.922 445.255
2621 0 106.195 11.5542 1227 105.749 120.992 445.979
2622 1 56.0687 10.505 589 114.452 122.171 471.309
2623 0 56.0551 10.347 580 116.598 120.25 470.776
2624 0 57.1018 10.8928 622 101.715 120.408 465.024
2625 0 60.2296 12.5354 755 107.975 121.538 471.499
2626 0 62.1638 10.7136 666 109.201 121.541 472.474
2627 0 62.1601 11.6313 723 109.155 121.438 471.328
2628 0 64.1137 11.1833 717 109.043 121.824 471.266
2629 0 68.1392 12.6066 859 104.733 121.354 467.838
2630 0 68.1248 10.8331 738 108.618 121.188 469.355
2631 0 70.1561 11.3889 799 109.155 120.735 466.262
2632 0 73.1849 12.161 890 105.122 120.97 465.785
2633 0 74.1084 11.3887 844 106.833 120.634 465.636
2634 0 77.1864 11.6601 900 105.961 120.608 463.704
2635 0 79.1762 11.2534 891 107.763 120.294 462.938
2636 0 84.3039 12.5973 1062 104.356 120.17 461.314
2637 0 88.0844 12.5561 1106 103.458 119.982 461.12
2638 0 91.0871 13.1193 1195 102.792 119.649 460.877
2639 0 92.1609 12.6084 1162 105.083 119.022 457.418
2640 0 94.1358 12.5032 1177 106.178 119.279 456.39
2641 0 98.0997 12.8237 1258 103.886 119.835 454.861
2642 0 99.1724 11.838 1174 104.782 119.509 450.735
2643 1 55.0382 11.3921 627 101.124 119.746 476.124
2644 0 57.0361 10.7651 614 104.782 119.836 473.378
2645 0 58.2227 11.164 650 107.365 118.522 467.762
2646 0 59.0698 11.1902 661 105.478 119.254 471.49
2647 0 63.0892 11.4283 721 105.092 119.689 472.458
2648 0 64.0749 12.3137 789 103.506 119.42 469.027
2649 0 65.0619 12.4343 809 104.214 119.248 467.315
2650 0 68.1733 12.7763 871 103.691 119.239 466.727
2651 0 70.106 11.5397 809 107.404 119.686 463.834
2652 0 71.1478 11.455 815 108.691 119.135 463.596
2653 0 74.1833 12.7926 949 106.171 118.823 463.67
2654 0 77.1836 12.0233 928 109.022 119.009 461.442
2655 0 79.1032 13.3244 1054 106.638 119.242 461.963
2656 0 81.2025 12.6966 1031 109.054 118.86 458.562
2657 0 84.1226 12.7552 1073 109.308 118.591 459.393
2658 0 89.1944 13.7789 1229 107.083 119.146 458.734
2659 0 92.1725 13.5615 1250 108.271 119.596 457.526
2660 0 93.0849 13.3856 1246 109.008 119.087 455.925
2661 0 97.1853 13.3559 1298 108.119 118.919 453.972
2662 0 101.091 12.9586 1310 109.148 118.563 454.395
2663 0 104.099 12.0654 1256 112.736 117.951 450.951
2664 1 56.1252 11.7772 661 110.077 117.723 474.21
2665 0 57.1349 12.2517 700 110.496 118.226 473.713
2666 0 60.12 11.6434 700 111.654 117.567 475.541
2667 0 63.1313 12.3235 778 110.189 117.467 473.44
2668 0 64.0781 12.7032 814 109.55 117.666 472.946
2669 0 68.1579 13.1459 896 107.531 117.852 473.114
2670 0 69.208 12.9898 899 107.563 118.406 470.679
2671 0 69.1329 12.1505 840 112.051 118.255 468.776
2672 0 74.0759 12.8787 954 108.103 118.283 465.729
2673 0 74.1288 12.5862 933 113.15 117.579 465.759
2674 0 78.1661 12.8956 1008 112.457 118.709 465.97
2675 0 80.1671 12.1122 971 114.334 118.136 464.571
2676 0 82.1546 12.5373 1030 114.742 118.534 461.864
2677 0 85.1605 11.9422 1017 115.309 118.443 461.672
2678 0 89.0949 12.4362 1108 113.48 118.603 459.757
2679 0 93.1623 13.5784 1265 109.36 118.038 455.39
2680 0 93.2749 10.9997 1026 117.777 117.54 452.603
2681 1 48.0661 9.52854 458 115.465 116.86 476.974
2682 0 50.047 10.4901 525 114.503 117.465 474.863
2683 0 52.0229 11.0144 573 113.644 116.483 473.714
2684 0 55.1668 11.4199 630 111.695 117.348 472.633
2685 0 57.1506 10.796 617 114.182 117.759 472.809
2686 0 56.1009 11.3724 638 115.359 116.859 471.796
2687 0 60.0759 11.7851 708 113.963 116.729 472.621
2688 0 60.0672 12.536 753 112.159 117.295 470.989
2689 0 62.1088 11.2867 701 114.779 117.243 471.304
2690 0 64.0769 12.5318 803 113.064 117.626 468.768
2691 0 65.1144 11.8868 774 114.806 117.717 468.842
2692 0 69.0956 12.7939 884 111.555 118.432 466.578
2693 0 70.0726 12.6298 885 112.671 117.724 467.095
2694 0 72.0781 13.3744 964 112.101 117.817 463.448
2695 0 75.0986 13.1694 989 112.257 117.434 464.861
2696 0 75.0791 12.4002 931 116.408 117.448 461.458
2697 0 78.0705 12.1557 949 116.08 117.903 460.217
2698 0 80.1549 12.9749 1040 114.344 118.051 458.891
2699 0 84.1287 12.6948 1068 114.725 118.183 458.583
2700 0 87.1089 13.5463 1180 112.611 118.411 456.807
2701 0 86.117 12.1695 1048 117.921 118.094 455.631
2702 0 89.1158 12.2313 1090 117.177 118.621 456.427
2703 0 91.1153 10.5251 959 120.578 117.975 457.003
2704 0 95.0987 11.63 1106 118.954 118.268 454.158
2705 1 55.0334 12.0109 661 111.838 117.708 474.569
2706 0 52.0495 9.83679 512 120.535 117.672 474.305
2707 0 54.0318 11.6043 627 114.694 117.754 472.281
2708 0 56.1352 11.6861 656 113.985 118.748 471.444
2709 0 57.1045 11.0849 633 115.649 117.633 471.687
2710 0 58.0739 11.2443 653 115.527 117.806 472.055
2711 0 61.0582 11.7756 719 113.07 118.089 471.624
2712 0 63.076 12.477 787 111.321 118.213 470.004
2713 0 63.0684 11.6857 737 114.151 118.115 469.3
2714 0 66.0646 13.2749 877 109.404 118.138 467.474
2715 0 65.1304 12.0988 788 113.132 118.036 467.429
2716 0 69.1773 12.2873 850 111.964 118.148 465.673
2717 0 70.1349 12.6043 884 111.964 119.328 464.26
2718 0 70.1054 11.226 787 116.895 118.966 462.748
2719 0 74.102 11.6731 865 114.884 118.369 461.342
2720 0 75.126 11.9666 899 113.136 118.719 460.931
2721 0 79.193 13.1325 1040 110.582 118.544 459.087
2722 0 79.1793 12.0612 955 114.801 118.404 457.405
2723 0 82.2383 12.7313 1047 111.584 118.353 458.489
2724 0 85.1316 12.1459 1034 113.085 119.045 459.14
2725 0 89.1444 12.2722 1094 113.588 119.008 455.548
2726 0 91.1785 12.7223 1160 112.87 119.291 455.675
2727 1 51.1557 11.0447 565 114.366 117.933 474.345
2728 0 49.0437 11.1941 549 115.991 117.521 473.049
2729 0 53.0575 11.4216 606 112.695 117.607 475.045
2730 0 53.0928 12.9961 690 105.361 119.017 473.943
2731 0 55.1418 12.2956 678 107.069 118.668 470.886
2732 0 56.1234 12.5794 706 106.686 118.22 470.538
2733 0 58.1153 13.1635 765 105.771 118.528 469.723
2734 0 57.1374 11.7086 669 110.867 118.777 468.553
2735 0 60.2414 12.7819 770 107.396 118.53 467.627
2736 0 62.0951 12.9318 803 107.583 118.666 465.988
2737 0 63.0672 11.6542 735 110.77 118.256 466.001
2738 0 65.0983 12.5503 817 108.86 118.421 465.311
2739 0 68.058 12.7979 871 108.201 119.053 466.457
2740 0 69.068 11.5828 800 112.139 118.84 464.034
2741 0 70.0948 11.9695 839 111.782 118.969 464.764
2742 0 75.0539 13.3504 1002 107.026 118.738 463.998
2743 0 76.2215 12.1094 923 110.476 118.908 462.388
2744 0 77.1023 13.0217 1004 109.808 119.187 460.246
2745 0 80.083 12.9366 1036 107.71 119.605 460.007
2746 0 80.2142 11.3696 912 112.66 119.842 460.175
2747 0 84.0897 12.0586 1014 111.684 119.666 458.543
2748 0 87.0953 13.1924 1149 110.96 119.603 456.288
2749 0 89.0968 12.9185 1151 111.965 119.297 454.889
2750 0 92.1718 12.7262 1173 112.495 119.821 454.195
2751 0 94.2206 12.025 1133 114.257 119.466 454.32
2752 0 97.1853 13.5308 1315 112.504 120.012 452.359
2753 0 102.209 13.8441 1415 114.127 119.505 447.139
2754 0 104.374 13.6529 1425 115.097 120.065 449.976
2755 0 109.304 13.9976 1530 115.18 119.905 446.376
2756 0 109.25 13.7117 1498 117.248 119.38 441.939
2757 0 114.404 14.0817 1611 115.76 119.977 442.057
2758 1 63.1033 13.2481 836 109.036 119.904 469.195
2759 0 67.1717 12.0289 808 105.494 120.244 465.892
2760 0 66.1198 12.2656 811 108.302 120.19 463.726
2761 0 67.2595 11.2846 759 112.655 120.374 461.117
2762 0 71.1525 10.1753 724 114.49 120.522 460.609
2763 0 73.1553 11.7695 861 112.009 119.556 459.868
2764 0 77.1329 12.109 934 110.573 119.374 460.004
2765 0 82.153 11.8681 975 110.058 119.785 459.919
2766 0 82.2137 11.3728 935 113.275 119.541 458.207
2767 0 83.2225 12.1241 1009 113.314 119.321 455.727
2768 0 84.2247 12.2411 1031 154.151 118.322 456.123
2769 0 93.2131 13.9573 1301 108.527 119.305 453.54
2770 0 95.1848 12.6281 1202 111.291 118.937 455.99
2771 0 97.127 12.2005 1185 112.754 119.648 454.105
2772 0 97.2044 11.2855 1097 116.885 119.334 450.75
2773 0 105.371 12.4797 1315 112.884 119.544 449.017
2774 0 109.227 12.4054 1355 111.982 119.428 449.888
2775 1 59.1474 11.5643 684 110.534 119.646 472.703
2776 0 62.1245 12.6198 784 108.416 119.518 469.44
2777 0 65.1366 11.4529 746 111.438 118.622 469.245
2778 0 65.1139 13.1769 858 108.682 120.928 466.622
2779 0 66.0733 11.5781 765 112.361 120.651 465.277
2780 0 69.0901 12.0422 832 109.06 120.779 465.957
2781 0 73.1174 12.5415 917 108.133 120.487 462.013
2782 0 74.1154 12.9528 960 107.853 120.586 461.507
2783 0 74.1474 10.5735 784 112.511 120.7 462.844
2784 0 78.2306 12.3865 969 108.816 120.175 460.183
2785 0 81.2017 11.5392 937 110.633 120.52 458.844
2786 0 84.1436 12.4311 1046 108.865 120.101 457.989
2787 0 88.1606 12.8062 1129 109.589 120.621 454.815
2788 0 89.1669 12.4374 1109 111.032 120.572 453.238
2789 0 93.2232 13.044 1216 111.365 120.532 450.864
2790 0 94.2138 13.3314 1256 112.459 120.72 449.877
2791 0 98.1932 13.0457 1281 113.234 119.791 449.518
2792 0 100.252 13.3563 1339 113.739 119.962 445.164
2793 0 104.314 12.7788 1333 115.742 119.783 445.446
2794 0 106.256 13.2133 1404 114.689 120.425 447.535
2795 0 109.187 13.0602 1426 122.375 120.283 442.607
2796 0 113.171 13.5193 1530 116.475 120.484 442.902
2797 0 118.274 13.1136 1551 118.983 120.142 437.975
2798 1 69.248 12.0725 836 116.609 119.078 466.884
2799 0 71.1131 12.6559 900 115.684 119.238 465.689
2800 0 73.2706 12.5971 923 116.008 119.326 465.223
2801 0 76.0798 13.6304 1037 113.175 119.224 461.808
2802 0 80.2266 13.3996 1075 111.145 119.26 460.763
2803 0 80.1474 12.9262 1036 114.203 119.358 459.438
2804 0 86.1552 13.0462 1124 113.299 119.217 458.994
2805 0 88.1398 13.1382 1158 114.2 118.844 455.359
2806 0 89.2086 13.6534 1218 114.003 118.869 455.659
2807 0 92.2604 13.4944 1245 115.555 119.065 453.92
2808 0 93.2377 13.5353 1262 116.354 119.648 451.147
2809 0 98.132 13.7875 1353 115.331 119.186 451.539
2810 0 101.118 14.0628 1422 116.067 119.086 448.445
2811 0 105.133 13.4686 1416 117.903 118.552 448.57
2812 0 105.13 13.6973 1440 119.556 118.931 446.358
2813 0 111.097 14.7529 1639 116.01 119.087 445.523
2814 0 113.203 14.2046 1608 117.47 118.809 439.841
2815 0 117.109 14.7213 1724 116.995 118.926 439.114
2816 0 120.113 14.2366 1710 118.518 119.278 440.142
2817 0 125.258 15.7115 1968 114.893 119.247 437.369
2818 0 128.257 14.1435 1814 119.861 119.427 434.417
2819 0 131.242 15.3914 2020 119.181 119.182 430.232
2820 0 135.371 15.9784 2163 120.423 118.982 424.646
2821 0 138.231 14.0851 1947 125.009 119.032 427.952
2822 0 145.442 13.9437 2028 126.065 119.069 423.114
2823 0 149.355 15.674 2341 121.019 119.094 423.296
2824 0 152.3 14.9901 2283 125.083 118.385 419.876
2825 0 156.325 14.892 2328 127.545 118.448 414.61
2826 0 165.494 15.3419 2539 126.309 118.642 412.93
2827 0 170.281 16.4728 2805 121.819 118.939 409.174
2828 0 175.454 15.5539 2729 122.617 119.114 410.046
2829 0 175.314 14.5624 2553 126.163 118.985 406.878
2830 0 185.349 15.1282 2804 123.355 118.981 406.281
2831 0 189.261 13.558 2566 127.579 119.297 405.152
2832 0 196.354 15.0901 2963 123.299 118.867 394.922
2833 0 202.547 13.6759 2770 127.177 119.122 393.908
2834 0 210.547 14.7473 3105 124.195 119.094 393.671
2835 0 217.461 14.6601 3188 124.997 119.29 387.549
2836 0 224.359 14.8245 3326 125.112 119.046 379.523
2837 0 234.334 14.5263 3404 126.047 119.057 374.746
2838 0 245.475 15.4394 3790 123.689 118.48 367.751
2839 1 54.5268 11.0771 604 115.702 118.586 468.975
2840 0 54.0861 11.2228 607 116.722 117.506 472.323
2841 0 53.0188 10.1662 539 121.367 117.54 467.965
2842 0 57.0354 10.7652 614 119.803 117.342 469.13
2843 0 59.1006 11.7427 694 118.065 117.365 467.241
2844 0 62.1227 10.3505 643 115.207 117.818 470.011
2845 0 64.1345 12.006 770 112.343 116.957 466.957
2846 0 64.0186 11.731 751 113.85 117.258 468.421
2847 0 66.3448 11.8321 785 113.144 117.944 465.72
2848 0 67.2253 11.7962 793 115.163 118.27 465.668
2849 0 69.1971 11.8502 820 115.005 117.621 464.005
2850 0 71.1079 13.1631 936 111.379 117.766 461.618
2851 0 74.2844 11.7252 871 114.844 117.575 454.689
2852 0 78.2179 12.6442 989 111.627 117.694 456.218
2853 0 82.2216 13.4028 1102 109.033 117.94 454.684
2854 1 95.2352 14.0074 1334 99.503 118.106 442.936
2855 0 93.1399 13.9253 1297 102.808 117.756 442.231
2856 0 94.0628 12.9382 1217 105.96 117.197 444.129
2857 0 94.0743 11.9161 1121 110.319 117.518 452.153
2858 1 51.0892 12.0573 616 110.693 116.685 473.102
2859 0 50.028 11.2337 562 113.737 117.023 473.77
2860 0 53.0674 12.7008 674 109.592 116.746 472.239
2861 0 55.0407 12.9359 712 109.029 116.591 470.725
2862 0 58.0337 14.6983 853 100.998 116.732 468.508
2863 0 66.4724 19.7676 1314 84.5525 118.861 458.899
2864 0 60.3595 13.9001 839 105.57 118.2 459.715
2865 0 66.1626 15.0236 994 98.9085 118.099 458.863
2866 0 65.3333 14.7857 966 103.17 117.933 462.358
2867 0 67.282 14.625 984 103.842 118.222 461.864
2868 0 64.3057 13.5758 873 111.284 118.308 464.545
2869 0 65.3353 13.27 867 113.195 118.839 463.511
2870 0 66.1849 14.0213 928 112.398 117.857 462.719
2871 0 69.3022 13.4483 932 113.688 118.51 461.749
2872 0 70.241 14.678 1031 111.039 117.849 459.887
2873 0 71.1265 13.9189 990 112.757 118.266 460.166
2874 0 75.2103 12.8174 964 114.368 118.822 460.026
2875 0 73.2829 13.059 957 115.839 118.926 456.666
2876 0 76.1125 13.7165 1044 115.708 118.982 456.131
2877 0 83.227 14.0339 1168 112.597 119.244 454.617
2878 0 84.2974 13.6303 1149 113.968 118.713 453.493
2879 0 86.1424 14.1974 1223 112.672 118.423 451.966
2880 0 88.2335 13.3396 1177 114.16 118.778 452.107
2881 0 89.1143 13.4883 1202 115.325 118.432 449.035
2882 0 94.1668 13.6991 1290 113.178 118.398 445.887
2883 1 54.1787 12.2188 662 117.591 119.051 465.905
2884 0 54.1067 12.1427 657 118.823 118.549 464.863
2885 0 56.07 13.1264 736 116.429 118.205 463.992
2886 0 56.1708 12.7824 718 117.662 118.195 468.38
2887 0 59.0522 12.4805 737 118.27 118.041 465.92
2888 0 61.0401 13.9253 850 115.131 117.406 464.564
2889 0 66.0821 11.9094 787 119.302 118.17 463.377
2890 0 64.0608 13.534 867 116.674 118.231 461.713
2891 0 62.073 13.4358 834 120.595 117.917 459.103
2892 0 66.0403 12.8558 849 120.726 117.986 459.807
2893 0 67.0884 13.7729 924 119.647 118.35 457.844
2894 0 70.0938 14.3237 1004 117.687 117.809 457.339
2895 0 72.2763 15.0533 1088 115.443 118.2 457.858
2896 0 75.1548 13.9312 1047 117.876 117.976 456.103
2897 0 76.162 14.2722 1087 118.303 118.145 453.673
2898 0 74.118 13.5055 1001 122.979 118.5 451.721
2899 0 80.2731 14.7372 1183 117.843 118.508 452.198
2900 0 82.0477 14.0162 1150 120.169 118.79 450.626
2901 0 83.377 13.9127 1160 122.246 118.641 448.391
2902 0 89.2858 14.8848 1329 116.334 118.315 446.684
2903 0 91.4162 13.5643 1240 120.212 118.751 445.31
2904 0 94.1932 14.8525 1399 118.182 118.877 442.532
2905 0 97.6161 15.0488 1469 117.091 118.571 443.393
2906 0 99.3449 13.4582 1337 122.343 118.672 438.969
2907 0 106.216 15.3838 1634 116.527 118.675 437.791
2908 1 56.1699 11.7145 658 119.53 119.009 463.521
2909 0 57.1473 12.494 714 119.029 118.88 460.724
2910 0 60.079 12.6167 758 117.462 118.042 463.569
2911 0 59.0457 12.1093 715 120.312 118.043 462.822
2912 0 63.0302 13.5015 851 115.702 117.98 460.007
2913 0 66.1638 12.726 842 116.911 118.373 460.152
2914 0 67.2436 12.6555 851 116.409 118.266 456.925
2915 0 69.3082 13.7935 956 114.522 118.813 455.262
2916 0 69.2348 12.4937 865 119.994 118.954 453.836
2917 0 73.1837 13.8282 1012 115.608 118.793 453.684
2918 0 77.259 13.0729 1010 117.906 118.962 451.432
2919 0 77.39 13.503 1045 119.197 118.647 447.872
2920 0 82.2857 13.1979 1086 117.47 117.95 448.651
2921 0 83.2072 14.2175 1183 118.61 118.281 443.889
2922 0 85.2171 14.598 1244 118.048 118.502 445.575
2923 0 87.2469 13.1695 1149 122.848 119.037 442.705
2924 0 91.3776 13.395 1224 121.49 118.824 442.35
2925 0 93.4048 12.9115 1206 122.915 118.449 440.066
2926 0 96.2439 12.406 1194 125.125 118.142 437.518
2927 0 98.2163 13.2259 1299 123.92 118.333 433.842
2928 0 103.282 14.0102 1447 122.444 118.105 432.277
2929 0 109.407 13.564 1484 122.533 117.643 430.71
2930 0 114.393 12.6843 1451 123.304 117.848 429.181
2931 0 117.187 12.0065 1407 126.091 117.839 427.65
2932 0 126.09 13.3317 1681 121.909 118.18 427.498
2933 0 128.144 12.564 1610 128.137 117.687 423.768
2934 1 70.0997 13.1099 919 114.901 118.159 457.843
2935 0 71.1068 10.6741 759 121.605 118.017 454.336
2936 0 70.1589 11.2887 792 123.266 118.183 450.747
2937 0 73.3326 12.341 905 120.788 117.798 446.587
2938 0 79.2996 12.7491 1011 117.856 117.697 448.431
2939 0 79.2218 12.2315 969 121.214 117.874 444.073
2940 0 81.1475 11.4483 929 123.277 118.343 443.701
2941 0 85.2594 12.7493 1087 120.275 118.411 443.688
2942 0 89.2175 12.1165 1081 122.603 118.608 441.03
2943 0 86.339 12.1961 1053 125.742 118.301 437.487
2944 0 96.2939 14.1753 1365 116.835 118.832 440.851
2945 0 98.1962 12.5158 1229 122.264 118.854 436.586
2946 0 100.365 11.9663 1201 123.463 118.905 436.614
2947 0 105.277 12.4149 1307 122.476 118.735 434.696
2948 0 110.347 11.4186 1260 125.144 118.749 432.972
2949 0 113.213 12.6575 1433 122.424 117.767 428.532
2950 0 120.276 11.7813 1417 122.507 117.742 427.675
2951 0 125.329 11.6892 1465 121.228 118.085 426.662
2952 1 68.1813 10.7361 732 115.805 117.359 452.984
2953 0 71.1793 11.4359 814 114.99 117.281 451.267
2954 0 72.0792 11.3209 816 116.391 117.598 451.276
2955 0 78.136 11.3648 888 116.739 117.455 455.497
2956 0 77.1205 11.9553 922 113.768 117.616 451.169
2957 0 78.3039 11.7491 920 114.187 117.435 450.435
2958 0 81.2493 10.6462 865 118.95 117.704 448.052
2959 0 86.4078 11.8392 1023 116.409 118.038 446.526
2960 0 87.295 11.7762 1028 117.58 118.278 444.856
2961 0 90.2328 11.7585 1061 117.427 118.453 443.987
2962 0 90.1754 11.766 1061 119.187 118.536 442.316
2963 0 85.1648 10.3564 882 102.655 118.509 436.223
2964 0 93.3181 11.7984 1101 121.179 117.77 437.104
2965 0 101.296 10.5335 1067 123.392 117.984 436.12
2966 0 101.433 11.8699 1204 121.022 117.632 436.422
2967 0 103.375 10.5731 1093 125.677 117.98 431.901
2968 0 112.346 11.242 1263 122.309 117.695 433.101
2969 0 116.33 11.5447 1343 122.366 117.869 430.042
2970 0 119.231 10.6515 1270 124.95 118.156 430.113
2971 1 72.2773 7.33287 530 108.06 118.642 461.26
2972 0 75.2354 10.7662 810 108.985 118.806 461.081
2973 0 77.2601 12.6974 981 107.149 118.127 461.733
2974 0 78.1788 10.9365 855 117.022 116.771 460.487
2975 0 81.2054 12.0312 977 114.771 116.315 461.319
2976 0 84.2373 11.705 986 116.257 117.086 460.977
2977 0 85.2624 12.1625 1037 116.752 117.11 457.449
2978 0 89.1401 13.6863 1220 114.789 116.711 457.108
2979 0 90.2153 14.0885 1271 115.26 116.729 456.589
2980 0 93.3784 12.6368 1180 119.436 116.872 456.186
2981 0 96.2143 14.0208 1349 116.438 117.067 453.012
2982 0 98.2418 12.9171 1269 120.147 117.026 453.256
2983 0 101.185 13.2233 1338 120.568 117.179 451.437
2984 0 102.108 12.4281 1269 122.226 116.935 450.454
2985 0 108.157 12.9719 1403 119.144 117.173 449.932
2986 0 111.24 12.882 1433 118.983 117.699 447.103
2987 0 113.167 11.7084 1325 122.954 117.834 446.501
2988 0 119.291 12.809 1528 127.487 117.387 444.205
2989 1 66.1163 11.1017 734 121.546 118.025 471.007
2990 0 69.1651 11.5087 796 112.731 116.991 468.744
2991 0 69.0657 12.0176 830 120.176 119.335 466.065
2992 0 71.117 12.5146 890 118.247 119.051 464.455
2993 0 75.1395 11.7249 881 120.35 118.839 464.299
2994 0 78.1206 13.8504 1082 114.073 118.732 464.486
2995 0 78.1267 12.8637 1005 118.892 118.362 461.972
2996 0 82.1475 13.4392 1104 116.108 118.243 460.891
2997 0 83.0659 13.7963 1146 116.679 119.017 460.435
2998 0 87.0776 14.4124 1255 114.892 118.799 458.723
2999 0 85.1416 11.4163 972 125.454 118.808 458.831
3000 0 87.0677 12.4845 1087 122.89 118.581 456.371
3001 0 92.0694 12.5123 1152 122.099 118.961 455.5
3002 0 93.1106 11.7495 1094 123.387 118.5 455.824
3003 0 98.0672 13.1338 1288 118.807 118.688 453.897
3004 0 100.095 11.3593 1137 123.56 118.428 450.206
3005 0 104.156 12.0012 1250 120.875 118.895 450.203
3006 1 56.0388 10.1001 566 122.47 119.355 473.696
3007 0 58.1226 13.0586 759 112.903 118.271 470.862
3008 0 58.084 10.7086 622 104.235 117.498 468.518
3009 0 58.0362 11.4067 662 114.657 119.073 471.736
3010 0 61.0864 12.1631 743 112.626 118.813 471.452
3011 0 64.0609 13.253 849 108.555 119.124 470.974
3012 0 66.1366 13.5175 894 107.983 119.176 469.469
3013 0 68.1105 13.5368 922 108.211 119.515 468.868
3014 0 69.1228 13.7437 950 108.161 118.984 467.825
3015 0 71.0825 12.6895 902 110.767 118.724 467.082
3016 0 71.2055 12.7378 907 112.083 118.538 465.106
3017 0 75.0541 12.7375 956 111.433 118.468 466.435
3018 0 78.119 13.7867 1077 108.962 118.869 464.421
3019 0 77.1112 12.6441 975 113.99 118.85 464.166
3020 0 75.1063 11.557 868 116.846 118.858 466.024
3021 0 81.1687 12.1722 988 115.412 118.512 462.775
3022 0 84.075 12.251 1030 115.637 118.495 459.533
3023 0 89.1005 12.7833 1139 118.68 116.816 456.083
3024 0 92.2749 12.5495 1158 119.398 116.969 455.851
3025 0 96.0935 11.9675 1150 121.185 116.421 453.62
3026 0 99.2041 12.8523 1275 118.627 116.146 452.35
3027 0 102.24 12.5978 1288 120.162 117.658 452.435
3028 1 57.1446 11.0947 634 114.979 119.685 473.642
3029 0 59.0508 11.397 673 109.322 117.129 472.16
3030 0 62.0876 13.1749 818 109.001 117.017 470.85
3031 0 64.2261 12.8297 824 109.626 117.073 472.072
3032 0 66.1508 13.3181 881 109.156 117.213 471.228
3033 0 66.0875 11.621 768 115.434 117.315 471.014
3034 0 69.1334 13.0038 899 112.324 117.182 469.263
3035 0 71.1927 13.8778 988 111.626 117.682 467.7
3036 0 72.2474 12.6925 917 115.388 116.975 469.073
3037 0 74.2881 14.0803 1046 111.703 117.634 466.315
3038 0 78.2327 13.9328 1090 110.881 117.541 467.521
3039 0 80.3062 13.1372 1055 113.182 118.255 463.773
3040 0 80.1481 11.7283 940 111.707 118.559 461.767
3041 0 83.2026 12.3914 1031 111.758 118.355 456.384
3042 0 86.211 12.3302 1063 111.376 118.405 455.713
3043 0 88.2392 12.8628 1135 110.863 118.899 457.086
3044 0 92.1287 13.6874 1261 110.269 118.301 455.832
3045 0 95.0981 12.6396 1202 112.968 118.302 451.374
3046 0 98.1622 14.1093 1385 117.319 118.355 453.251
3047 0 98.1318 14.0118 1375 122.22 118.909 453.041
3048 0 99.3442 13.5388 1345 129.655 118.961 452.855
3049 0 100.205 14.2907 1432 118.249 118.782 451.075
3050 0 99.2097 12.5391 1244 133.93 119.095 450.797
3051 1 54.2493 10.8389 588 130.216 118.616 474.267
3052 0 56.2283 12.0224 676 126.916 118.222 473.649
3053 0 57.0992 12.8898 736 122.526 118.561 471.696
3054 0 57.1143 12.9565 740 122.822 118.532 472.58
3055 0 59.1097 13.2635 784 121.241 118.571 471.603
3056 0 60.1789 12.7952 770 122.23 118.053 471.323
3057 0 63.0413 12.3887 781 120.566 118.818 469.091
3058 0 66.0615 13.5783 897 116.184 118.072 467.74
3059 0 69.0656 14.3342 990 113.525 117.672 464.896
3060 0 69.1024 13.1544 909 118.846 117.612 464.201
3061 0 73.1009 12.6537 925 118.969 117.766 464.161
3062 0 73.0818 13.0949 957 119.269 117.395 463.457
3063 0 76.1126 13.0596 994 120.038 117.336 462.232
3064 0 77.0822 13.7386 1059 119.392 117.326 462.653
3065 0 80.1361 13.4147 1075 121.819 117.722 458.892
3066 0 81.1072 13.3774 1085 124.352 117.636 458.949
3067 0 83.0968 12.9608 1077 128.077 117.611 458.227
3068 1 45.0604 9.27644 418 136.892 117.67 470.526
3069 0 48.1337 11.5719 557 132.747 117.828 472.788
3070 0 49.1596 13.1002 644 130.995 117.764 470.43
3071 0 53.1946 12.4449 662 128.998 118.514 475.21
3072 0 53.1705 13.2592 705 129.318 118.455 474.99
3073 0 55.1943 13.3166 735 129.92 118.69 475.177
3074 0 55.242 13.8301 764 131.703 118.081 473.812
3075 0 55.1133 12.9914 716 136.862 118.215 473.673
3076 0 56.1226 13.1854 740 139.409 118.028 470.97
3077 0 59.0666 13.6118 804 137.272 117.733 472.337
3078 0 59.1161 14.3277 847 138.181 117.608 469.413
3079 0 62.0454 13.748 853 139.476 117.632 470.111
3080 0 63.0816 13.3161 840 141.965 118.064 468.487
3081 0 63.0539 14.1308 891 141.228 117.612 468.634
3082 0 65.1654 13.7343 895 143.413 118.277 467.661
3083 0 67.0556 13.1383 881 148.222 117.663 464.691
3084 0 70.1032 14.7497 1034 141.898 118.175 464.249
3085 0 72.098 14.2722 1029 143.764 117.914 463.771
3086 0 74.115 15.0982 1119 142.293 118.37 460.861
3087 0 77.0525 15.1585 1168 141.661 117.576 460.884
3088 0 79.0548 15.698 1241 140.224 117.817 460.056
3089 0 80.1331 14.401 1154 145.432 118.128 457.854
3090 0 83.2119 13.8081 1149 146.171 118.64 457.133
3091 0 86.0978 14.4487 1244 143.615 117.704 456.292
3092 0 89.0459 14.2623 1270 146.424 117.85 453.326
3093 0 89.1198 13.2406 1180 151.488 118.086 451.198
3094 0 94.1132 14.185 1335 147.025 117.938 449.96
3095 1 51.0285 11.7777 601 147.714 118.115 469.92
3096 0 53.1411 12.1939 648 144.665 119.156 468.059
3097 0 53.1231 11.9157 633 146.848 119.567 468.93
3098 0 57.0561 13.1099 748 141.049 117.948 468.12
3099 0 59.0411 11.7715 695 136.367 118.986 467.988
3100 0 63.0921 12.5531 792 133.85 119.285 467.669
3101 0 63.0582 12.1951 769 136.958 119.147 465.129
3102 0 65.1065 11.6732 760 138.396 119.025 463.5
3103 0 67.0205 12.7424 854 134.822 119.001 463.807
3104 0 69.1356 12.2802 849 135.966 118.938 463.14
3105 0 70.1111 12.3946 869 135.18 119.094 461.868
3106 0 74.0766 11.9606 886 135.08 119.23 462.146
3107 0 75.091 12.8777 967 133.582 119.026 461.186
3108 0 79.1084 12.6282 999 134.343 118.97 457.793
3109 0 81.0912 12.3195 999 134.695 118.658 457.017
3110 0 84.0593 12.0867 1016 134.076 119.101 456.65
3111 0 88.0814 12.2387 1078 131.949 118.408 457.178
3112 0 90.086 13.3983 1207 129.843 118.245 455.694
3113 0 94.0912 12.9874 1222 130.827 117.964 453.324
3114 1 53.1247 11.2942 600 127.377 118.48 474.858
3115 0 53.1676 12.3195 655 126.075 118.431 472.562
3116 0 55.0524 12.5335 690 126.78 118.335 472.836
3117 0 56.0676 11.5575 648 126.011 117.682 471.154
3118 0 60.1137 12.1769 732 122.704 117.447 470.066
3119 0 61.1869 12.6498 774 121.159 117.588 467.185
3120 0 64.0444 11.9761 767 121.317 118.259 466.919
3121 0 67.1039 13.7399 922 116.218 118.11 465.573
3122 0 70.0622 12.5317 878 119.265 117.674 465.433
3123 0 72.065 12.7385 918 119.41 118.138 464.727
3124 0 74.0661 12.9749 961 119.548 118.395 463.888
3125 0 77.093 13.9831 1078 116.588 118.332 463.421
3126 0 77.161 12.299 949 121.965 118.564 461.026
3127 0 81.0723 13.3584 1083 119.886 118.625 459.745
3128 0 84.1094 13.3635 1124 119.996 118.321 459.416
3129 0 86.0936 13.4621 1159 120.946 118.173 455.35
3130 0 90.0994 14.2842 1287 118.416 118.108 454.993
3131 0 93.103 13.7375 1279 120.536 118.61 453.14
3132 0 97.1212 13.6839 1329 120.756 118.439 452.625
3133 1 54.2084 11.5111 624 125.381 118.197 473.511
3134 0 56.081 11.5369 647 124.872 120.117 472.784
3135 0 58.2036 12.2845 715 121.765 120.024 471.208
3136 0 61.125 14.4622 884 113.798 119.741 470.814
3137 0 62.0712 11.809 733 128.505 118.105 469.453
3138 0 64.0201 14.6204 936 119.937 118.632 469.124
3139 0 66.0287 13.8425 914 123.263 118.253 468.153
3140 0 69.0665 13.3929 925 124.345 118.452 467.522
3141 0 71.0638 13.4949 959 123.014 118.813 468.456
3142 0 72.023 15.3701 1107 118.518 118.917 466.011
3143 0 73.0629 13.4131 980 125.715 118.321 464.545
3144 0 77.035 15.4605 1191 118.301 118.942 465.233
3145 0 80.0454 14.3294 1147 121.564 119.233 464.193
3146 0 80.0818 13.661 1094 125.098 118.27 462.037
3147 0 83.0582 14.5079 1205 122.681 118.153 461.529
3148 0 86.0222 13.2989 1144 126.462 118.476 460.393
3149 0 89.0387 14.7127 1310 122.905 118.011 459.54
3150 0 93.0427 14.8641 1383 123.339 118.163 457.662
3151 0 94.137 14.1602 1333 125.945 117.929 455.293
3152 0 100.051 15.0923 1510 122.56 118.352 454.082
3153 1 55.0688 11.5492 636 127.256 117.668 477.107
3154 0 58.0173 12.5307 727 124.746 117.937 476.107
3155 0 57.0409 12.307 702 116.054 119.064 473.255
3156 0 57.1109 11.9592 683 113.644 119.713 472.275
3157 0 60.0484 12.6065 757 112.498 119.818 472.021
3158 0 64.1719 12.3263 791 112.081 119.777 471.282
3159 0 65.0702 13.1089 853 110.034 119.972 471.811
3160 0 68.0731 12.0018 817 112.647 119.339 470.847
3161 0 69.044 13.1221 906 111.258 119.306 468.058
3162 0 73.092 13.0931 957 110.738 119.167 467.681
3163 0 73.1012 12.9957 950 111.925 119.814 467.679
3164 0 75.1599 13.6642 1027 111.054 119.645 466.583
3165 0 78.0859 14.3816 1123 110.317 119.346 463.216
3166 0 83.1409 13.6996 1139 111.454 119.081 462.284
3167 0 84.1113 13.4465 1131 113.274 119.155 462.824
3168 0 88.0881 13.3616 1177 111.501 119.358 462.302
3169 0 89.1048 12.4685 1111 114.824 119.54 459.687
3170 0 93.1923 13.4668 1255 113.179 119.512 458.616
3171 0 94.2405 13.5929 1281 114.692 118.478 454.24
3172 0 98.1375 13.4913 1324 114.726 119.183 455.532
3173 0 100.138 12.8423 1286 116.956 118.723 454.368
3174 0 103.289 13.7769 1423 115.306 119.061 452.169
3175 0 107.141 13.9069 1490 116.211 119.242 450.446
3176 0 108.146 13.1951 1427 117.248 119.75 449.492
3177 0 111.402 13.5006 1504 115.489 118.985 447.664
3178 0 116.192 13.5896 1579 115.355 118.689 446.55
3179 0 121.133 12.2262 1481 122.381 118.338 446.254
3180 1 65.1391 11.3296 738 116.263 118.984 470.102
3181 0 68.2113 12.1681 830 114.786 117.922 468.317
3182 0 71.1014 12.1657 865 116.309 117.951 468.896
3183 0 73.2536 12.9277 947 115.201 118.251 465.397
3184 0 73.1636 12.6566 926 116.51 118.381 466.269
3185 0 77.1401 12.7042 980 116.399 118.294 463.861
3186 0 80.0847 12.9862 1040 114.263 119.082 464.577
3187 0 81.1229 13.0296 1057 115.544 118.751 461.723
3188 0 86.0901 13.1026 1128 114.553 118.391 462.848
3189 0 86.1212 13.3649 1151 115.526 118.717 459.28
3190 0 89.1276 12.8804 1148 116.794 118.653 459.757
3191 0 93.0636 13.5714 1263 114.914 118.397 458.587
3192 0 95.1763 13.6484 1299 115.488 118.44 456.671
3193 0 98.1161 14.4319 1416 114.041 118.119 455.112
3194 0 99.1318 13.1845 1307 119.267 118.136 453.825
3195 0 104.094 13.9585 1453 117.723 118.44 451.667
3196 0 106.143 13.1238 1393 121.988 118.271 448.329
3197 0 110.173 13.9145 1533 119.07 118.447 447.717
3198 0 114.089 13.5157 1542 123.66 117.861 445.224
3199 0 118.196 12.5892 1488 126.601 118.35 442.27
3200 0 122.262 12.6205 1543 128.273 118.001 442.364
3201 1 65.0949 12.1668 792 123.777 118.02 468.867
3202 0 67.1293 13.1984 886 120.888 117.439 468.929
3203 0 68.0605 12.4007 844 124.941 118.161 467.046
3204 0 69.0817 12.8833 890 123.525 118.515 468.204
3205 0 73.0691 13.0972 957 123.246 118.47 467.549
3206 0 76.149 12.3048 937 125.39 118.491 465.234
3207 0 78.0632 13.092 1022 124.043 117.932 464.007
3208 0 78.0651 13.002 1015 126.11 118.879 461.384
3209 0 84.097 12.9018 1085 124.581 118.591 462.741
3210 0 85.1426 13.5185 1151 124.582 118.386 461.262
3211 0 88.1514 13.7264 1210 124.988 118.562 460.685
3212 0 91.0675 13.9677 1272 125.952 118.395 457.362
3213 0 94.2323 13.8275 1303 126.989 117.224 454.708
3214 0 98.182 13.9333 1368 127.569 117.468 453.483
3215 0 99.2228 14.0794 1397 129.823 117.038 451.225
3216 0 103.113 13.6646 1409 130.998 117.087 448.767
3217 0 106.122 13.9368 1479 131.332 117.703 446.378
3218 0 110.151 14.3439 1580 130.225 117.514 445.989
3219 0 109.133 14.047 1533 135.732 117.648 442.986
3220 0 115.178 14.3082 1648 133.686 118.006 441.922
3221 0 117.114 13.3631 1565 136.771 117.393 440.009
3222 0 122.153 14.7274 1799 134.045 117.883 438.675
3223 0 126.257 14.1933 1792 136.03 117.642 438.586
3224 0 130.228 14.2673 1858 138.047 118.119 434.644
3225 0 135.206 14.06 1901 136.36 118.208 432.999
3226 0 135.222 14.0509 1900 170.027 118.212 433.028
3227 0 145.317 13.9695 2030 136.605 119.267 430.543
3228 1 62.1081 12.5587 780 122.033 119.61 472.686
3229 0 62.1081 12.5104 777 150.575 119.61 472.721
3230 0 63.0422 11.8016 744 132.083 120.266 468.664
3231 0 66.0333 12.0697 797 132.566 119.7 468.857
3232 0 68.0542 12.9162 879 130.576 119.898 467.884
3233 0 71.0866 12.9279 919 131.531 119.931 465.83
3234 0 73.0386 12.5687 918 132.237 119.698 464.92
3235 0 73.0578 12.6612 925 134.371 119.577 463.557
3236 0 77.0807 12.8696 992 133.415 119.765 462.981
3237 0 79.1909 12.6025 998 134.336 120.228 462.396
3238 0 80.1652 12.8609 1031 134.56 119.805 459.405
3239 0 85.0562 13.5087 1149 129.883 119.989 459.797
3240 0 88.1969 13.4472 1186 129.556 119.838 458.101
3241 0 89.0972 12.4246 1107 122.544 119.519 457.687
3242 0 92.1713 11.8909 1096 121.853 119.25 458.684
3243 0 97.1745 12.0299 1169 123.749 118.429 454.008
3244 1 54.1006 11.1644 604 125.599 119.442 476.336
3245 0 57.0745 12.3523 705 122.513 118.843 474.626
3246 0 57.0887 12.2791 701 119.65 119.7 473.653
3247 0 62.1157 13.2495 823 117.113 119.442 471.591
3248 0 61.2731 12.1424 744 124.228 117.594 470.93
3249 0 64.0843 13.7163 879 121.411 118.702 469.152
3250 0 63.0629 12.099 763 128.891 117.822 470.567
3251 0 64.0576 10.9433 701 132.143 118.469 469.347
3252 0 67.0313 12.1137 812 129.025 117.682 467.111
3253 0 69.0657 12.3216 851 128.028 117.857 467.113
3254 0 67.1096 11.593 778 132.213 117.898 465.392
3255 0 71.0788 12.662 900 128.796 117.866 463.778
3256 0 73.1389 12.9616 948 128.208 118.083 463.255
3257 0 75.1165 12.1278 911 130.821 117.996 462.574
3258 0 76.1107 12.1533 925 130.363 118.533 460.856
3259 0 79.1815 12.3893 981 128.288 118.866 461.618
3260 0 83.2786 13.0406 1086 126.715 118.573 458.713
3261 0 85.2745 12.4305 1060 128.543 118.288 457.571
3262 0 86.2257 12.7804 1102 129.025 118.284 457.569
3263 0 88.2707 12.0085 1060 131.414 118.432 450.942
3264 0 93.2652 12.8451 1198 125.849 118.674 452.95
3265 0 98.3527 12.445 1224 127.162 119.029 450.35
3266 0 100.302 13.1902 1323 122.893 118.221 449.128
3267 1 56.2138 10.2822 578 121.656 117.934 469.969
3268 0 60.1241 11.942 718 117.987 117.994 471.972
3269 0 61.0864 11.9666 731 123.256 118.023 467.958
3270 0 64.1208 12.4141 796 120.485 117.608 468.397
3271 0 66.1827 12.7979 847 120.028 118.024 467.53
3272 0 67.0935 13.116 880 121.076 118.216 466.116
3273 0 70.2421 13.4819 947 119.095 118.256 464.729
3274 0 72.2498 12.8582 929 121.396 118.412 463.928
3275 0 73.0947 13.8314 1011 119.123 118.123 463.851
3276 0 73.0994 12.955 947 123.319 118.843 462.049
3277 0 77.1018 13.8259 1066 120.583 119.067 462.129
3278 0 80.1938 14.2779 1145 119.893 119.087 458.304
3279 0 82.1551 13.9371 1145 120.718 119.52 458.147
3280 0 83.0901 13.2627 1102 123.977 118.214 457.422
3281 0 85.1084 14.4522 1230 122.193 118.593 455.115
3282 0 87.2137 13.6561 1191 124.264 118.768 455.963
3283 0 93.173 14.135 1317 122.178 118.87 453.786
3284 0 95.0807 14.4824 1377 121.926 118.701 452.149
3285 0 96.0968 13.6633 1313 125.347 118.789 449.786
3286 0 100.124 14.502 1452 123.161 118.828 447.208
3287 0 103.204 14.4374 1490 124.051 118.662 446.544
3288 0 106.165 14.3644 1525 123.232 118.521 447.124
3289 0 110.324 14.2036 1567 123.859 118.144 444.364
3290 0 114.211 14.0179 1601 124.722 118.44 441.656
3291 0 117.325 13.9101 1632 125.473 118.613 439.828
3292 0 123.274 13.1415 1620 124.83 118.906 440.314
3293 1 68.1351 11.8441 807 121.605 117.976 466.338
3294 0 70.1298 11.9778 840 118.255 118.376 464.552
3295 0 73.2106 13.1811 965 112.141 118.509 465.207
3296 0 72.1411 11.9349 861 117.617 118.516 463.635
3297 0 76.1051 13.3368 1015 113.417 118.974 462.832
3298 0 78.1989 12.8646 1006 115.324 119.156 459.29
3299 0 82.1765 13.1789 1083 114.659 119.447 459.114
3300 0 84.2173 12.7527 1074 119.345 119.499 457.786
3301 0 89.2457 12.3591 1103 118.233 119.989 456.98
3302 0 90.1726 13.7403 1239 115.929 119.596 453.73
3303 0 93.2783 13.3043 1241 116.654 120.253 452.994
3304 0 96.277 12.5367 1207 118.826 120.393 452.882
3305 0 99.4211 13.2366 1316 117.334 120.114 450.552
3306 0 101.285 13.2991 1347 117.464 119.824 448.143
3307 0 104.414 12.1056 1264 120.856 120.262 446.812
3308 0 106.276 11.4043 1212 122.538 120.676 447.422
3309 0 110.376 12.1856 1345 119.412 120.951 444.31
3310 1 63.1987 11.6775 738 119.346 120.325 468.302
3311 0 62.0969 12.6093 783 116.927 119.382 465.405
3312 0 66.0432 12.9915 858 113.406 119.416 466.287
3313 0 68.0788 13.5431 922 112.602 119.211 464.415
3314 0 70.0479 12.1774 853 115.936 119.453 464.559
3315 0 71.053 12.8355 912 115.385 118.894 462.82
3316 0 74.0465 13.0324 965 114.522 119.007 462.171
3317 0 76.0687 12.607 959 116.742 118.91 460.494
3318 0 78.1362 13.6428 1066 114.806 119.644 460.434
3319 0 82.0506 14.6495 1202 112.304 118.975 458.69
3320 0 83.0421 13.4631 1118 117.394 119.327 456.38
3321 0 84.0727 12.9412 1088 120.385 119.392 456.928
3322 0 88.1715 12.884 1136 121.476 120.467 453.783
3323 0 91.1898 13.4664 1228 120.869 120.015 454.211
3324 0 92.2111 12.8726 1187 124.947 120.16 453.505
3325 0 94.2834 12.2185 1152 128.866 120.064 449.639
3326 0 97.1018 11.6167 1128 129.973 120.154 448.192
3327 0 100.121 12.1553 1217 127.954 119.071 445.952
3328 0 102.2 12.7202 1300 128.022 119.442 443.433
3329 0 107.198 11.3715 1219 130.971 119.564 444.833
3330 1 60.1874 10.1849 613 125.569 119.268 465.693
3331 0 62.09 10.9841 682 126.714 119.367 463.799
3332 0 63.0729 10.908 688 129.172 119.578 464.211
3333 0 64.1102 11.449 734 128.943 119.663 462.279
3334 0 66.0827 11.077 732 130.802 119.455 461.258
3335 0 67.1126 11.7117 786 129.21 120.246 461.128
3336 0 71.1996 12.8933 918 124.442 120.442 461.379
3337 0 67.1215 12.3358 828 131.582 120.023 455.152
3338 0 75.2308 12.6677 953 125.589 120.185 455.638
3339 0 77.1566 11.7164 904 128.635 120.269 455.488
3340 0 80.1436 11.8413 949 127.903 120.262 457.752
3341 0 80.2527 10.2551 823 135.815 120.026 453.951
3342 0 84.1817 12.1167 1020 130.958 120.24 452.221
3343 0 87.1298 11.9247 1039 131.034 120.664 453.13
3344 0 92.2169 12.7309 1174 128.426 120.436 452.061
3345 0 92.272 11.6829 1078 133.154 120.255 451.377
3346 0 96.3169 12.0228 1158 132.604 120.381 447.925
3347 0 100.309 13.0597 1310 130.005 120.066 445.95
3348 0 102.223 11.9054 1217 133.194 119.735 446.085
3349 0 107.244 12.8492 1378 129.902 120.12 444.062
3350 0 108.203 11.5893 1254 134.418 120.099 441.297
3351 0 113.277 13.0741 1481 130.317 120.482 438.158
3352 1 64.2446 11.0982 713 127.407 119.874 462.752
3353 0 64.2907 10.3436 665 130.215 119.544 462.818
3354 0 68.0389 10.6263 723 120.95 119.794 463.47
3355 0 68.1499 11.8269 806 118.62 119.825 460.888
3356 0 73.1076 11.7498 859 116.618 119.928 462.866
3357 0 74.1569 10.6396 789 119.7 120.349 459.321
3358 0 77.1092 11.7236 904 116.773 119.72 458.434
3359 0 80.0434 12.081 967 116.128 118.839 458.865
3360 0 83.0736 13.1329 1091 113.798 119.38 457.989
3361 0 85.063 12.5319 1066 116.242 119.212 456.84
3362 0 89.103 13.1084 1168 113.497 119.723 456.809
3363 0 88.1296 11.7441 1035 119.214 119.173 455.843
3364 0 93.1259 11.5006 1071 119.764 119.109 452.407
3365 0 97.1115 11.4919 1116 118.878 119.11 452.599
3366 0 100.112 12.5659 1258 116.672 118.782 452.219
3367 0 102.147 13.0987 1338 115.848 118.354 446.256
3368 0 105.134 11.9752 1259 118.087 118.716 447.36
3369 1 61.0263 11.0116 672 112.28 119.036 472.292
3370 0 59.1282 10.6548 630 116.289 119.31 470.827
3371 0 62.021 10.3191 640 117.98 119.616 471.495
3372 0 66.1105 10.5883 700 112.616 118.453 467.466
3373 0 66.0929 9.92543 656 113.53 118.363 468.942
3374 0 68.119 11.5386 786 117.135 117.737 468.308
3375 0 71.0895 11.0424 785 111.641 118.553 465.442
3376 0 73.0711 10.5377 770 112.535 118.248 463.613
3377 0 74.1004 11.1605 827 110.703 117.949 463.262
3378 0 78.1132 10.2544 801 112.773 118.772 460.007
3379 0 81.0909 9.96412 808 111.981 118.546 457.864
3380 0 84.0707 10.2057 858 113.005 118.298 454.31
3381 0 81.0749 9.59607 778 115.991 118.272 451.945
3382 0 87.0594 10.3607 902 113.491 118.717 452.653
3383 0 90.1003 11.2208 1011 117.67 117.899 456.871
3384 0 94.1489 12.0447 1134 116.141 117.669 454.593
3385 0 99.1598 12.2429 1214 112.842 118.58 453.549
3386 0 101.157 12.1396 1228 113.632 119.024 451.622
3387 0 106.183 11.9417 1268 110.267 119.17 446.637
3388 0 106.149 9.51497 1010 94.9198 119.048 441.256
3389 1 60.1775 7.8767 474 110.002 119.017 468.591
3390 0 62.1848 10.9512 681 104.836 119.803 467.507
3391 0 63.1072 10.9021 688 112.465 119.6 469.26
3392 0 68.1969 12.4053 846 110.654 120.488 466.504
3393 0 69.1559 12.4646 862 110.581 120.433 466.558
3394 0 70.1571 11.8734 833 113.678 120.682 464.084
3395 0 71.153 11.5526 822 115.208 120.893 463.669
3396 0 75.1345 13.3627 1004 109.181 120.966 463.281
3397 0 77.1705 11.9476 922 112.692 120.518 463.196
3398 0 80.1521 12.9753 1040 109.636 120.508 462.147
3399 0 80.0998 11.4857 920 114.962 120.472 461.1
3400 0 85.3263 12.9503 1105 110.775 120.292 457.721
3401 0 88.1301 12.266 1081 112.463 120.077 458.17
3402 0 88.1267 12.97 1143 111.976 119.825 454.359
3403 0 91.2462 12.8115 1169 111.881 120.12 455.397
3404 0 96.184 13.4638 1295 109.5 119.642 453.392
3405 0 98.1401 13.3585 1311 110.047 119.789 453.28
3406 0 100.12 14.0332 1405 109.579 119.499 448.82
3407 0 102.148 11.9337 1219 115.012 119.513 449.757
3408 0 107.233 12.5801 1349 113.546 119.33 446.039
3409 0 110.189 14.0668 1550 110.831 119.39 443.703
3410 0 113.223 13.1334 1487 114.711 120.201 444.627
3411 1 65.1218 10.6262 692 124.481 120.068 461.406
3412 0 65.1433 11.2368 732 124.758 119.945 459.836
3413 0 69.1217 12.1525 840 117.571 120.201 466.432
3414 0 72.2076 12.4779 901 117.481 120.387 464.154
3415 0 72.2842 11.8006 853 122.225 118.596 464.491
3416 0 74.141 11.6265 862 122.693 117.872 463.294
3417 0 76.2766 10.9732 837 123.344 117.883 465.18
3418 0 77.1719 11.429 882 125.05 117.773 460.316
3419 0 80.1781 12.2353 981 122.704 118.118 458.336
3420 0 82.1769 13.4344 1104 119.397 118.997 458.579
3421 0 84.1969 12.6964 1069 122.056 119.302 457.016
3422 0 87.174 12.4005 1081 122.726 119.65 456.216
3423 0 91.1264 12.565 1145 123.309 119.02 453.538
3424 0 93.1412 14.2687 1329 119.205 118.763 451.615
3425 0 94.1177 12.9519 1219 123.843 118.989 449.916
3426 0 99.16 12.9488 1284 123.143 119.028 447.911
3427 0 102.216 13.1389 1343 122.598 119.417 446.989
3428 0 106.179 13.1194 1393 122.793 119.136 445.569
3429 0 111.394 13.0169 1450 123.196 119.115 442.568
3430 0 113.206 12.3669 1400 124.706 119.497 441.386
3431 0 114.361 11.7785 1347 127.122 119.482 435.866
3432 1 62.1552 10.7634 669 125.501 119.641 462.686
3433 0 62.1594 10.457 650 125.731 119.397 454.643
3434 0 68.1508 13.074 891 105.987 120.109 465.358
3435 0 70.2464 11.417 802 110.617 120.299 465.949
3436 0 73.1318 12.5253 916 108.132 120.65 463.738
3437 0 74.1792 11.8766 881 109.593 120.856 461.036
3438 0 77.1704 11.9994 926 110.405 120.076 459.328
3439 0 78.1599 12.0522 942 110.613 120.12 458.74
3440 0 83.1296 12.5828 1046 108.951 119.812 459.381
3441 0 85.1807 12.4676 1062 110.291 119.25 457.76
3442 0 88.1059 13.9151 1226 107.923 119.356 457.475
3443 0 90.2238 12.1365 1095 112.859 119.395 455.317
3444 0 92.2118 11.5278 1063 116.505 119.335 452.294
3445 0 96.2363 12.5213 1205 114.53 119.389 452.383
3446 0 99.1277 12.7714 1266 115.301 119.556 450.633
3447 0 99.2558 12.9061 1281 117.319 118.956 448.707
3448 0 101.134 12.5774 1272 119.399 118.884 449.961
3449 0 106.071 14.4431 1532 115.631 119.171 446.417
3450 0 108.266 12.6356 1368 121.504 118.786 446.859
3451 0 111.21 13.2992 1479 121.057 118.966 443.522
3452 0 116.163 12.7235 1478 123.4 119.789 439.886
3453 0 121.233 13.5194 1639 125.131 119.781 438.777
3454 0 125.311 12.9837 1627 131.077 119.049 435.336
3455 0 127.316 13.7689 1753 129.814 119.222 435.619
3456 0 134.236 13.9455 1872 129.137 118.862 433.63
3457 0 138.51 13.9845 1937 130.6 118.923 432.11
3458 0 142.375 13.7946 1964 131.791 118.552 428.526
3459 0 146.333 13.0934 1916 134.361 118.459 425.715
3460 1 85.4132 10.5136 898 131.541 118.785 456.762
3461 0 88.48 11.9575 1058 132.636 118.231 453.982
3462 0 90.2922 11.4849 1037 133.365 118.24 453.133
3463 0 93.3003 11.9292 1113 133.596 118.213 452.552
3464 0 96.3738 12.3996 1195 133.047 118.432 451.642
3465 0 100.429 12.2873 1234 133.994 118.072 448.801
3466 0 102.372 12.9234 1323 133.353 118.105 446.546
3467 0 109.431 12.894 1411 130.488 118.084 449.266
3468 0 110.324 12.5086 1380 133.899 117.536 445.669
3469 0 114.383 13.3237 1524 130.724 117.392 445.294
3470 0 116.35 12.6515 1472 133.859 117.406 442.505
3471 0 121.433 13.4313 1631 133.128 118.146 439.971
3472 0 125.388 13.861 1738 130.876 118.337 439.003
3473 0 126.367 12.3212 1557 136.506 118.263 434.94
3474 0 132.437 12.4663 1651 135.571 118.429 433.541
3475 1 78.3418 9.06285 710 132.345 118.396 459.021
3476 0 82.1432 10.5547 867 128.684 119.076 458.532
3477 0 86.2326 11.3646 980 126.978 118.026 456.483
3478 0 85.2673 10.1094 862 132.245 118.241 453.543
3479 0 91.4823 11.7072 1071 128.507 117.953 451.344
3480 0 94.5836 11.7568 1112 127.922 117.652 449.246
3481 0 99.6898 11.7866 1175 126.849 118.016 448.712
3482 0 100.576 11.4541 1152 128.64 117.687 447.51
3483 0 103.592 12.2403 1268 128.896 117.534 443.393
3484 0 107.584 12.2416 1317 129.09 117.814 441.164
3485 0 109.566 11.7098 1283 131.402 118.049 440.097
3486 0 111.308 10.8078 1203 134.91 117.723 438.222
3487 0 116.375 11.9872 1395 131.563 117.487 434.775
3488 0 119.299 10.4862 1251 137.203 118.073 434.085
3489 0 124.529 10.6642 1328 134.148 117.752 436.621
3490 0 130.584 12.6279 1649 130.311 117.924 431.418
3491 1 73.4721 10.5618 776 120.774 118.308 460.095
3492 0 72.5328 11.1674 810 121.458 118.105 456.796
3493 0 75.039 10.9143 819 123.932 119.031 463.022
3494 0 79.0788 10.2429 810 125.685 118.68 461.523
3495 0 81.093 11.197 908 124.442 118.88 459.685
3496 0 83.087 10.6274 883 125.717 119.903 459.715
3497 0 84.2192 10.0333 845 129.011 118.996 456.392
3498 0 87.1912 9.63399 840 129.414 118.987 452.593
3499 0 90.2799 11.0102 994 126.178 119.037 451.543
3500 0 92.3138 9.81435 906 129.044 119.582 450.317
3501 0 96.3233 11.5237 1110 124.605 119.269 449.669
3502 0 98.3996 11.25 1107 125.425 119.908 448.509
3503 0 100.3 12.0239 1206 125.509 119.158 446.318
3504 0 100.312 9.27105 930 135.263 118.929 440.5
3505 0 107.474 12.5333 1347 125.428 119.4 442.406
3506 0 108.305 11.1722 1210 130.557 118.911 437.047
3507 0 111.424 12.6723 1412 127.859 119.501 435.694
3508 0 115.3 12.4285 1433 128.365 119.353 437.72
3509 0 117.323 12.7937 1501 129.038 119.467 434.604
3510 0 121.373 12.268 1489 130.645 118.95 431.504
3511 0 123.422 11.6187 1434 133.551 119.038 428.338
3512 0 128.384 12.5639 1613 130.329 119.397 430.188
3513 0 133.399 12.6463 1687 129.067 118.312 429.469
3514 0 136.411 11.9126 1625 131.862 118.997 424.996
3515 0 139.323 12.3382 1719 131.614 119.173 423.25
3516 0 144.244 12.4927 1802 135.009 119.638 418.34
3517 0 152.392 13.2159 2014 131.048 119.461 419.408
3518 0 159.41 13.1861 2102 130.5 118.929 416.176
3519 1 96.4179 10.859 1047 123.466 119.269 445.926
3520 0 99.1906 10.9486 1086 126.544 120.482 445.798
3521 0 103.237 11.924 1231 123.772 119.576 445.79
3522 0 106.304 11.5988 1233 125.65 119.376 444.132
3523 0 109.155 11.8181 1290 124.365 119.51 445.64
3524 0 111.152 10.7601 1196 127.937 119.002 442.569
3525 0 115.152 11.9755 1379 125.346 119.355 439.518
3526 0 116.248 11.0711 1287 127.124 118.747 438.291
3527 0 122.189 11.4576 1400 125.578 118.709 437.125
3528 0 123.238 11.6928 1441 125.033 119.056 437.43
3529 0 129.251 11.8993 1538 124.281 119.288 433.276
3530 0 131.243 11.0406 1449 125.999 119.593 433.478
3531 0 133.249 10.8819 1450 127.903 119.157 429.997
3532 0 138.207 11.8735 1641 125.368 118.919 428.11
3533 0 141.302 11.5639 1634 127.063 119.377 424.403
3534 0 144.234 11.4259 1648 126.027 119.44 423.82
3535 0 150.287 12.9153 1941 121.271 119.491 425.196
3536 0 154.28 12.769 1970 124.302 119.18 418.213
3537 0 159.21 12.2605 1952 126.319 119.689 416.158
3538 0 162.214 12.1876 1977 126.641 119.84 410.031
3539 0 167.246 11.5339 1929 128.025 119.352 408.002
3540 0 172.282 11.754 2025 127.45 118.909 407.131
3541 0 177.328 11.4308 2027 126.574 118.82 403.573
3542 0 183.355 12.9039 2366 124.328 119.293 401.574
3543 0 191.473 13.7826 2639 123.995 119.28 398.746
3544 0 196.381 13.3974 2631 133.336 118.926 390.182
3545 1 114.282 10.3954 1188 125.4 119.293 433.147
3546 0 116.264 12.291 1429 127.036 119.496 431.97
3547 0 120.363 12.1632 1464 126.816 118.662 428.035
3548 0 121.419 13.8611 1683 122.738 119.353 427.531
3549 0 120.302 12.1943 1467 128.819 119.118 425.836
3550 0 127.149 11.9151 1515 124.676 119.851 428.204
3551 0 128.213 12.7444 1634 122.88 119.924 425.367
3552 0 131.366 12.5984 1655 123.677 119.45 424.347
3553 0 134.225 13.1645 1767 124.279 118.898 418.475
3554 0 138.338 12.8308 1775 125.198 119.219 417.089
3555 0 143.338 11.9438 1712 128.934 119.536 412.513
3556 0 144.19 12.5876 1815 128.622 119.474 406.474
3557 0 155.42 13.1257 2040 125.509 119.439 408.534
3558 0 151.309 13.0462 1974 127.832 119.565 404.107
3559 0 158.367 12.6605 2005 128.926 119.494 402.053
3560 0 166.343 13.5083 2247 124.344 118.951 402.612
3561 0 169.286 12.6472 2141 127.504 119.243 398.135
3562 0 174.396 12.6895 2213 129.237 119.097 393.706
3563 0 183.509 13.3236 2445 126.348 118.888 393.647
3564 0 189.392 12.5876 2384 127.424 118.936 399.633
3565 1 120.202 9.85005 1184 117.369 118.599 436.18
3566 0 125.246 12.0803 1513 114.676 118.563 435.21
3567 0 127.188 11.4476 1456 117.137 120.28 434.122
3568 0 131.339 11.8396 1555 116.451 119.542 432.354
3569 0 133.34 10.3494 1380 118.943 120.054 431.171
3570 0 138.293 11.4757 1587 118.547 120.017 427.292
3571 0 141.251 11.653 1646 119.326 120.583 424.321
3572 0 143.371 10.8111 1550 120.943 120.272 422.701
3573 0 148.236 11.313 1677 121.061 120.219 420.739
3574 0 154.39 11.9244 1841 119.329 120.022 420.646
3575 0 162.404 12.629 2051 116.766 119.764 420.216
3576 0 165.331 12.6353 2089 117.834 120.297 414.91
3577 0 169.662 12.295 2086 119.294 120.012 412.478
3578 0 173.324 12.5949 2183 120.367 119.458 406.81
3579 0 180.312 12.667 2284 118.718 119.698 409.542
3580 0 184.32 12.131 2236 120.233 119.949 402.64
3581 0 188.296 12.8308 2416 119.103 118.76 401.844
3582 0 196.173 13.274 2604 117.382 119.262 399.586
3583 0 201.333 12.6109 2539 120.024 118.54 393.759
3584 0 207.258 12.7232 2637 119.77 119.05 390.662
3585 1 14.0017 3.99952 56 93.9821 116.554 487.179
3586 0 17.0038 4.41079 75 94.1067 116.24 486.2
3587 0 14.0125 4.35327 61 93.8033 116.508 487.836
3588 0 11.0008 2.45438 27 94.8519 116.407 489.407
3589 0 14.0006 5.28547 74 90.0405 116.486 489.851
3590 0 14.001 2.71408 38 95.4211 116.921 490.184
3591 0 16.0045 4.99859 80 90.35 116.7 489.85
3592 0 16.0028 6.8113 109 88.1009 116.936 489.009
3593 0 18.0115 6.99551 126 89.3254 117.246 487.984
3594 0 11.0058 4.1796 46 93.3261 118 490.543
3595 0 9.00075 2.33314 21 95.9524 118.81 491.667
3596 0 14.0152 6.06485 85 89.9294 118.871 492.482
3597 0 10.0161 1.7971 18 94.8333 119.778 490.722
3598 0 13.0049 5.53639 72 88.875 120.403 491.944
3599 0 17.0391 5.28198 90 90.2333 120.967 490.167
3600 0 17.0391 5.39936 92 106.826 121.957 490.261
3601 0 20.041 5.48875 110 91.7182 119.873 490.073
3602 0 18.0051 5.38736 97 89.4948 120.649 492.021
3603 0 16.0341 7.17222 115 86.1565 120.609 493.226
3604 0 16.0524 7.47554 120 88.4167 120.617 491.658
3605 0 18.0169 8.38104 151 87.8146 120.497 489.821
3606 0 17.0116 6.23104 106 90.3679 120.585 490.236
3607 0 16.0809 4.60173 74 92.4054 121.5 490.257
3608 0 15.0389 6.11745 92 92.2391 121.478 488.402
3609 0 9.00018 2.5555 23 98.6522 123 490.957
3610 1 26.1701 6.49597 170 89.5294 120.771 486.424
3611 0 19.029 4.67708 89 86.5955 123.079 482.753
3612 1 115.224 9.03457 1041 105.232 120.709 433.496
3613 0 120.406 10.3068 1241 96.2208 120.541 436.993
3614 0 124.311 11.0046 1368 95.3143 120.656 436.77
3615 0 127.531 9.18994 1172 98.1817 120.913 432.724
3616 0 130.63 9.24752 1208 98.7525 120.531 429.69
3617 0 136.6 10.9004 1489 95.0329 120.361 430.82
3618 0 139.495 9.62039 1342 97.0917 120.534 430.151
3619 0 141.55 9.24053 1308 97.8211 120.964 431.242
3620 0 144.52 10.3238 1492 96.8458 121.373 428.405
3621 1 206.226 11.4147 2354 99.4138 120.884 400.444
3622 0 209.78 11.8219 2480 100.366 120.151 390.883
3623 0 217.942 12.0858 2634 99.7639 120.776 387.928
3624 0 221.687 11.5207 2554 102.18 121.051 380.883
3625 1 161.477 10.726 1732 99.5214 120.667 413.473
3626 1 97.378 8.76995 854 93.6253 121.13 447.231
3627 0 100.221 9.89809 992 92.4839 121.452 446.56
3628 0 103.233 11.4111 1178 89.8548 121.908 445.217
3629 0 106.361 9.97543 1061 91.0019 121.697 452.509
3630 0 107.244 12.0193 1289 88.8006 120.726 449.217
3631 0 112.218 10.034 1126 92.7318 121.052 446.848
3632 0 112.278 10.8391 1217 92.6787 120.919 444.264
3633 0 119.346 9.95421 1188 93.0614 121.167 443.698
3634 0 123.229 11.4097 1406 91.5171 120.426 440.165
3635 0 124.312 11.5194 1432 92.852 120.512 436.382
3636 0 130.22 10.9968 1432 92.8673 121.116 441.282
3637 0 130.22 10.9737 1429 143.705 122.12 441.452
3638 0 136.156 13.0218 1773 92.2442 120.127 434.615
3639 0 140.185 10.8785 1525 95.4748 120.453 434.715
3640 0 142.255 10.3547 1473 96.239 120.647 435.297
3641 0 143.232 11.1498 1597 96.9518 120.82 429.327
3642 0 150.21 12.4226 1866 94.5166 121.018 427.462
3643 0 154.194 10.6684 1645 97.7854 120.787 426.43
3644 0 157.233 10.9519 1722 96.6818 119.907 419.742
3645 1 16.0009 3.5623 57 79.1579 121.649 489.333
3646 0 20.0062 6.04812 121 73.1818 122.521 490.736
3647 0 11.0022 5.1808 57 74.4561 122.526 493.175
3648 0 15.0009 6.59961 99 73.4343 122.96 490.808
3649 0 14.035 6.62628 93 72.2688 122.419 490.957
3650 1 181.302 11.1085 2014 99.4856 119.25 402.888
3651 0 188.393 11.3062 2130 99.1141 119.915 398.779
3652 0 190.337 10.1714 1936 103.346 119.048 389.748
3653 1 15.0021 4.93265 74 72.2973 121.041 491.365
3654 0 19.0176 4.67986 89 70.9551 120.213 491.944
3655 0 14.0073 3.21261 45 71.9111 121 492.733
3656 0 16.0032 6.31124 101 69.396 120.564 492.634
3657 0 11.0016 3.99941 44 72.8636 121.705 491.273
3658 0 13.0079 4.2282 55 71.7273 121.855 492.345
3659 0 12.0011 4.16629 50 70.86 121.9 493.06
3660 0 11.0024 6.36224 70 70.3 122.443 491.343
3661 0 14.0274 4.70509 66 75.2121 122.591 488.727
3662 0 18.0503 5.15227 93 74.6774 122.591 490.14
3663 0 17.0025 8.17525 139 72.9209 122.108 491.806
3664 1 65.3674 8.35279 546 83.9799 120.029 469.837
3665 0 66.2114 9.04678 599 87.0634 120.322 467.14
3666 0 69.2026 9.71061 672 84.0878 119.827 467.676
3667 0 70.1816 9.33293 655 85.6519 120.282 463.214
3668 0 71.3064 8.07781 576 88.1615 119.741 472.99
3669 0 74.2914 10.0012 743 87.8762 119.571 468.501
3670 0 74.1796 8.99169 667 89.4708 119.97 463.336
3671 0 76.303 10.917 833 86.7851 120.202 465.011
3672 0 78.1447 11.0308 862 87.8561 120.271 462.708
3673 0 81.1995 10.2341 831 90.6342 119.446 460.816
3674 0 82.2078 10.1572 835 92.3677 119.719 462.51
3675 0 86.2611 11.3261 977 91.5773 120.063 461.816
3676 0 89.2169 12.2174 1090 91.6936 119.305 458.517
3677 0 88.369 11.1578 986 98.5862 118.66 457.432
3678 0 88.369 11.2257 992 141.791 118.667 457.453
3679 0 93.438 11.933 1115 102.549 118.51 452.551
3680 0 96.4195 12.0411 1161 102.003 119.031 455.804
3681 0 98.4655 12.7964 1260 102.31 118.676 451.822
3682 0 100.468 10.2619 1031 107.416 118.566 453.406
3683 0 103.515 11.9693 1239 105.529 118.473 450.694
3684 0 105.51 10.7004 1129 109.329 118.588 447.903
3685 0 109.449 12.1153 1326 107.824 118.422 444.178
3686 0 117.459 12.1149 1423 106.592 118.892 443.853
3687 0 116.433 12.2731 1429 107.919 118.971 444.866
3688 0 117.465 12.0716 1418 111.082 119.348 440.789
3689 0 121.557 12.6279 1535 109.839 118.498 443.405
3690 0 125.433 11.6078 1456 114.004 118.865 439.352
3691 0 130.624 12.7465 1665 111.858 118.769 438.271
3692 0 134.389 13.0368 1752 111.553 118.492 437.341
3693 0 137.513 13.5042 1857 112.253 118.228 435.051
3694 0 139.412 12.7177 1773 115.727 118.425 431.22
3695 0 141.434 12.5783 1779 117.957 118.228 428.685
3696 0 145.496 13.2031 1921 117.406 117.947 427.375
3697 0 149.38 13.2882 1985 117.125 118.133 429.148
3698 0 153.578 13.9278 2139 117.005 117.857 423.851
3699 0 164.482 12.591 2071 119.321 117.855 425.278
3700 0 161.563 12.6762 2048 122.155 117.664 418.513
3701 0 167.41 14.5331 2433 112.155 117.423 417.176
3702 1 98.45 9.9035 975 118.199 117.755 450.909
3703 0 103.374 11.676 1207 114.407 117.99 451.761
3704 0 102.367 12.0742 1236 116.799 118.104 447.684
3705 0 107.457 12.5724 1351 114.866 118.277 449.016
3706 0 109.372 12.0232 1315 116.06 118.18 448.849
3707 0 111.344 11.7204 1305 119.969 118.389 445.325
3708 0 115.349 12.4839 1440 119.028 118.808 443.613
3709 0 119.286 12.7006 1515 119.145 118.343 442.635
3710 0 120.337 11.7171 1410 121.346 117.913 443.013
3711 0 123.324 12.9172 1593 120.63 118.294 437.662
3712 0 125.278 11.6381 1458 125 118.582 435.418
3713 0 130.435 12.857 1677 121.548 117.246 426.645
3714 0 137.292 12.7028 1744 121.655 117.334 425.499
3715 0 140.277 13.3165 1868 120.782 117.122 422.961
3716 0 144.382 12.9933 1876 121.655 117.112 423.731
3717 0 147.505 13.0233 1921 123.1 117.089 420.932
3718 0 152.47 12.9599 1976 124.967 117.019 418.142
3719 0 160.38 13.3932 2148 123.433 117.195 415.29
3720 1 96.2655 12.6941 1222 113.293 117.164 450.462
3721 0 96.2646 11.0009 1059 119.874 117.571 449.785
3722 0 100.555 12.2222 1229 118.214 117.675 449.805
3723 0 104.483 12.3944 1295 118.739 117.564 446.899
3724 0 105.577 12.1143 1279 121.389 117.869 444.363
3725 0 110.565 12.5356 1386 122.432 117.543 443.367
3726 0 113.378 13.5035 1531 121.119 117.991 440.067
3727 0 116.78 12.9988 1518 123.429 118.459 437.362
3728 0 119.422 13.0211 1555 126.009 118.627 432.625
3729 0 124.366 12.4793 1552 126.966 118.41 432.314
3730 0 127.666 12.6188 1611 128.331 118.445 429.778
3731 0 128.419 12.2723 1576 130.846 117.407 428.099
3732 0 134.473 12.8725 1731 129.73 118.094 424.188
3733 0 138.429 13.9493 1931 127.27 118.125 423.429
3734 0 141.433 12.9178 1827 129.683 118.55 422.785
3735 0 147.367 13.463 1984 129.136 118.675 417.896
3736 0 152.455 13.7024 2089 128.432 118.68 418.805
3737 0 156.731 13.654 2140 130.545 118.036 410.609
3738 1 89.3101 10.402 929 125.025 119.455 445.967
3739 0 91.2583 11.5935 1058 120.344 119.272 444.511
3740 0 96.229 12.0026 1155 124.735 118.789 447.902
3741 0 97.0779 12.3818 1202 117.928 117.51 450.102
3742 0 99.2069 12.0657 1197 120.462 117.516 448.693
3743 0 99.207 11.5818 1149 123.672 117.563 445.464
3744 0 103.215 11.4034 1177 124.868 117.357 442.857
3745 0 106.196 11.347 1205 124.017 117.751 448.121
3746 0 109.105 11.6494 1271 125.58 118.377 444.181
3747 0 112.186 11.3115 1269 126.899 118.75 442.072
3748 0 113.208 11.1299 1260 129.538 117.803 436.419
3749 0 119.225 12.5561 1497 124.64 118.333 438.476
3750 0 120.269 11.9649 1439 126.706 119.049 439.236
3751 0 125.274 12.4687 1562 127.286 118.826 436.155
3752 0 126.279 12.0685 1524 129.768 118.927 434.242
3753 0 131.289 12.6287 1658 128.511 119.159 431.965
3754 0 134.458 12.4797 1678 129.734 118.648 429.477
3755 0 140.383 13.0999 1839 127.418 118.977 429.356
3756 0 144.291 12.9599 1870 128.14 118.707 427.332
3757 0 150.55 14.4337 2173 129.026 118.97 419.338
3758 0 152.284 12.1353 1848 135.806 118.799 416.639
3759 0 160.302 12.2581 1965 123.948 120.456 418.34
3760 1 100.266 11.2999 1133 121.1 118.568 449.613
3761 0 105.492 12.8825 1359 118.835 118.851 447.386
3762 0 109.513 13.5601 1485 121.848 120.335 446.353
3763 0 110.427 12.8049 1414 123.527 120.014 442.481
3764 0 112.307 11.9405 1341 125.647 120.311 440.047
3765 0 118.314 12.9317 1530 121.319 120.045 440.449
3766 0 120.297 11.9372 1436 125.036 120.323 437.921
3767 0 123.252 10.8396 1336 115.094 120.712 440.105
3768 0 126.218 10.3155 1302 116.998 120.804 438.503
3769 0 128.234 11.2997 1449 118.108 121.05 433.521
3770 0 134.159 10.905 1463 117.844 121.059 435.071
3771 0 135.165 10.2985 1392 121.101 120.819 430.052
3772 0 141.277 12.2455 1730 116.733 120.695 429.751
3773 0 148.354 12.8005 1899 118.214 120.863 426.17
3774 0 152.291 12.5353 1909 120.127 120.416 421.162
3775 0 157.345 12.2533 1928 120.71 121.012 418.282
3776 0 163.346 12.8316 2096 119.965 121.093 414.622
3777 0 166.303 11.4249 1900 123.123 121.056 413.256
3778 1 97.1941 9.78455 951 119.86 120.575 448.524
3779 0 101.202 10.6224 1075 115.2 120.89 445.181
3780 0 106.172 13.4687 1430 112.171 120.431 444.682
3781 0 103.136 10.1419 1046 123.624 119.043 447.179
3782 0 104.274 9.15852 955 126.881 118.766 446.273
3783 0 113.26 11.4427 1296 119.794 119.099 445.475
3784 0 113.188 10.9729 1242 120.038 118.99 447.186
3785 0 119.221 11.8771 1416 118.868 119.167 443.171
3786 0 123.288 12.3613 1524 117.844 118.939 440.404
3787 0 128.241 12.3985 1590 118.104 119.226 438.284
3788 0 131.452 12.1032 1591 119.294 119.815 435.062
3789 0 135.274 13.1289 1776 116.846 119.32 432.572
3790 0 140.243 13.4338 1884 116.306 119.22 431.389
3791 0 142.306 13.0915 1863 118.228 119.013 428.521
3792 0 146.394 14.2083 2080 116.699 119.301 426.076
3793 0 150.553 12.9656 1952 120.323 119.065 422.425
3794 0 155.291 13.3877 2079 119.784 118.638 419.122
3795 0 159.253 14.1536 2254 116.707 119.216 417.912
3796 0 166.391 15.109 2514 113.728 119.227 418.533
3797 0 170.378 14.1157 2405 118.099 118.97 413.333
3798 0 172.58 12.7187 2195 122.899 118.486 412.739
3799 0 178.343 13.1657 2348 121.149 118.677 412.076
3800 0 183.404 13.5602 2487 121.202 118.973 407.313
3801 0 189.569 14.4907 2747 122.603 118.716 399.391
3802 0 196.449 14.9047 2928 121.556 118.541 395.125
3803 0 200.498 13.8854 2784 124.907 118.629 391.217
3804 0 205.43 13.4498 2763 123.485 119.49 393.887
3805 1 162.373 12.0709 1960 126.21 119.098 410.184
3806 0 169.288 14.4783 2451 120.938 118.645 410.941
3807 0 173.451 14.4421 2505 121.86 119.547 404.39
3808 0 175.374 13.1434 2305 126.341 118.934 403.715
3809 0 181.282 13.4873 2445 125.611 118.875 399.275
3810 0 184.271 13.4476 2478 125.498 119.005 398.223
3811 0 193.195 14.4103 2784 122.739 119.383 401.059
3812 0 200.239 14.6425 2932 122.273 118.786 394.071
3813 0 206.327 13.847 2857 123.537 119.002 392.151
3814 0 214.266 14.7153 3153 122.113 119.473 388.209
3815 0 222.339 14.9456 3323 121.06 119.729 385.905
3816 0 224.486 13.4084 3010 127.141 120.01 382.172
3817 0 234.515 13.8669 3252 125.081 118.912 375.736
3818 0 242.413 13.5471 3284 125.296 119.038 375.94
3819 0 251.422 13.8094 3472 125.175 118.838 372.607
3820 1 67.1181 10.2804 690 103.058 119.825 457.957
3821 0 68.1989 10.8946 743 105.386 118.961 463.004
3822 0 72.1549 11.9881 865 105.304 119.17 464.053
3823 0 73.0374 10.8985 796 104.54 118.249 464.32
3824 0 74.048 10.7768 798 105.179 120.753 462.768
3825 0 74.0451 10.8042 800 135.171 121.745 462.73
3826 0 79.1981 11.4775 909 103.111 120.658 457.712
3827 0 80.142 11.5919 929 105.205 120.348 459.388
3828 0 83.061 11.9792 995 104.731 120.515 459.572
3829 0 87.1644 11.9315 1040 103.316 119.712 458.71
3830 0 88.1147 12.5745 1108 103.857 119.007 455.455
3831 0 91.0714 13.3412 1215 102.814 119.7 455.869
3832 0 92.143 12.6542 1166 106.693 119.081 449.246
3833 0 96.1427 12.003 1154 108.059 119.154 438.235
3834 0 98.118 12.1384 1191 109.473 118.771 439.221
3835 0 101.087 12.0589 1219 109.618 118.638 447.176
3836 0 103.168 11.7381 1211 119.178 119.7 446.384
3837 0 103.246 12.2426 1264 113.631 119.399 446.323
3838 0 110.183 13.1327 1447 111.594 119.699 444.77
3839 0 111.178 12.4306 1382 116.452 120.236 440.331
3840 0 114.175 12.8399 1466 115.07 119.855 444.115
3841 0 120.219 14.249 1713 112.41 120.102 440.082
3842 0 121.146 12.8687 1559 116.334 120.584 438.534
3843 0 125.221 13.9434 1746 115.111 120.3 434.447
3844 1 53.0528 10.122 537 107.657 121.655 473.754
3845 0 56.1366 12.1311 681 103.388 121.856 474.16
3846 0 58.1465 12.3825 720 104.196 121.619 472.369
3847 0 59.046 11.8721 701 105.367 121.332 472.506
3848 0 59.0574 12.1238 716 104.577 121.278 469.615
3849 0 61.0446 12.3025 751 103.771 120.627 471.009
3850 0 64.0982 12.3873 794 102.778 120.524 469.724
3851 0 63.1987 12.7534 806 103.512 120.72 468.619
3852 0 66.1203 12.3109 814 104.29 120.665 469.028
3853 0 68.1283 13.2397 902 101.753 120.671 465.945
3854 0 68.115 12.0091 818 105.031 120.482 465.912
3855 0 69.1363 12.5983 871 103.716 120.613 463.928
3856 0 73.2147 12.2653 898 103.962 119.821 463.629
3857 0 74.122 11.8184 876 105.197 119.984 462.289
3858 0 76.1631 12.5783 958 103.278 120.454 463.697
3859 0 77.1128 13.3311 1028 103.292 120.071 458.414
3860 0 82.111 12.8363 1054 103.221 120.029 460.444
3861 0 81.0626 13.1257 1064 104.363 120.081 457.445
3862 0 86.2353 13.7763 1188 102.119 120.185 457.171
3863 0 86.046 12.5049 1076 105.129 120.015 458.125
3864 0 88.1 11.8502 1044 107.614 120.614 454.794
3865 0 92.1728 12.5851 1160 105.966 120.356 455.519
3866 0 95.1727 12.2094 1162 105.989 120.623 454.079
3867 0 97.3186 12.1971 1187 107.66 120.011 451.35
3868 0 101.208 13.0128 1317 105.673 120.323 451.088
3869 0 103.074 12.1757 1255 105.714 119.845 446.76
3870 0 107.201 12.3134 1320 108.286 119.795 447.552
3871 0 110.2 12.7042 1400 108.17 119.544 445.653
3872 0 113.14 11.72 1326 110 120.358 446.434
3873 0 119.153 12.3371 1470 109.23 120.36 443.777
3874 1 67.0751 12.2698 823 110.036 120.413 466.113
3875 0 71.198 14.4667 1030 105.528 120.218 463.476
3876 0 74.1191 14.2069 1053 103.456 119.921 465.018
3877 0 74.1169 13.5192 1002 106.543 120.378 464.105
3878 0 74.0699 13.5143 1001 107.867 120.269 460.7
3879 0 79.0366 14.0821 1113 105.63 120.272 462.181
3880 0 80.1435 13.0141 1043 109.395 120.472 461.249
3881 0 84.0839 13.772 1158 107.814 119.751 459.991
3882 0 86.1258 14.3511 1236 107.951 119.845 456.93
3883 0 87.1789 14.0975 1229 109.841 119.95 457.775
3884 0 90.0731 13.8443 1247 110.731 119.797 459.824
3885 0 91.1125 14.0486 1280 112.993 120.028 455.078
3886 0 93.1461 13.2265 1232 117.735 120.13 452.113
3887 0 98.1583 13.7024 1345 116.472 120.652 453.88
3888 0 100.056 13.3226 1333 119.104 119.896 451.58
3889 0 103.143 14.0388 1448 118.036 119.629 451.592
3890 0 103.173 13.1914 1361 122.248 119.545 450.132
3891 0 108.244 13.8206 1496 121.604 119.539 448.029
3892 0 110.143 14.5175 1599 121.063 119.301 444.24
3893 0 114.119 13.7751 1572 122.166 118.779 443.308
3894 0 118.171 14.6567 1732 116.54 119.318 439.255
3895 0 121.118 14.2505 1726 119.398 118.349 437.566
3896 0 124.197 14.0985 1751 120.93 118.537 434.403
3897 1 69.0569 11.1937 773 120.86 119.125 462.955
3898 0 71.0453 12.4005 881 118.941 119.347 461.056
3899 0 76.188 13.3223 1015 125.981 118.132 463.03
3900 0 80.0785 14.5482 1165 122.664 118.166 462.378
3901 0 79.1267 12.7264 1007 128.875 118.409 460.262
3902 0 84.1643 14.6856 1236 122.194 118.744 458.366
3903 0 86.127 15.9764 1376 119.252 118.374 458.119
3904 0 89.0967 14.7592 1315 123.592 118.623 456.961
3905 0 91.0522 14.6509 1334 124.612 118.669 455.666
3906 0 94.0558 14.1831 1334 126.698 118.681 454.274
3907 0 97.06 15.6501 1519 123.078 118.224 453.554
3908 0 98.0837 13.8759 1361 130.657 118.849 452.233
3909 0 101.161 15.0454 1522 127.282 118.783 451.229
3910 0 102.205 14.0893 1440 131.894 118.2 450.949
3911 0 105.06 14.4298 1516 131.807 118.62 447.113
3912 0 106.176 14.3629 1525 133.78 118.118 446.088
3913 0 109.069 14.6605 1599 132.848 118.096 445.383
3914 0 113.177 15.3653 1739 130.398 119.125 444.959
3915 0 117.17 15.3452 1798 131.506 118.596 442.22
3916 0 120.281 15.63 1880 132.317 118.718 438.999
3917 0 124.321 14.7119 1829 135.745 117.851 439.241
3918 0 130.24 15.7862 2056 131.405 117.955 438.133
3919 0 132.193 14.5696 1926 135.012 117.809 436.741
3920 0 136.354 14.8217 2021 134.675 117.836 430.155
3921 0 134.355 14.7446 1981 166.059 116.832 429.384
3922 0 142.303 14.5183 2066 137.617 118.072 428.661
3923 0 147.271 14.1915 2090 137.305 118.103 423.433
3924 0 156.224 15.4009 2406 130.376 117.723 416.598
3925 0 160.217 15.0483 2411 132.453 117.771 411.517
3926 1 89.1243 12.2413 1091 134.39 118.369 451.801
3927 0 91.1264 13.4977 1230 135.878 118.093 450.8
3928 0 94.1005 13.273 1249 138.488 117.495 448.809
3929 0 97.1581 13.5758 1319 137.139 117.886 449.567
3930 0 99.1817 13.8433 1373 136.434 117.778 451.245
3931 0 101.328 13.856 1404 141.975 117.92 447.093
3932 0 107.252 13.9578 1497 140.645 117.772 446.803
3933 0 110.264 14.1751 1563 139.561 117.606 445.423
3934 0 112.243 14.8606 1668 137.992 117.878 442.317
3935 0 116.1 13.764 1598 137.16 117.28 442.538
3936 0 120.074 14.7742 1774 131.544 117.833 439.854
3937 0 125.232 15.3795 1926 129.249 117.411 438.949
3938 0 129.099 13.8653 1790 134.184 117.44 435.098
3939 0 134.107 13.9292 1868 132.687 116.753 435.874
3940 0 138.173 14.8003 2045 129.271 117.39 432.156
3941 0 144.213 15.2761 2203 127.814 117.036 429.274
3942 0 146.179 13.545 1980 133.625 117.379 427.127
3943 0 152.22 14.6235 2226 129.664 117.374 424.889
3944 0 157.213 14.668 2306 128.594 117.273 425.217
3945 0 162.212 14.1173 2290 130.493 117.641 420.866
