time division length width area intensity CMx CMy
0 0 69.1118 12.733 880 124.452 589.919 459.611
1 0 71.2325 12.9576 923 124.593 590.126 458.244
2 0 75.1744 14.9785 1126 115.386 589.825 453.08
3 0 78.2193 15.6994 1228 112.147 589.647 450.265
4 0 76.2497 13.1148 1000 122.794 589.174 452.512
5 0 78.1718 11.9608 935 126.262 589.883 451.942
6 0 81.2797 13.5704 1103 121.457 590.451 450.782
7 0 83.2452 13.0098 1083 122.97 590.354 448.955
8 0 87.1585 14.6974 1281 118.454 590.564 446.376
9 0 91.183 15.6718 1429 112.597 589.538 442.225
10 0 92.2406 12.9878 1198 119.306 589.677 443.717
11 0 93.3337 12.9535 1209 119.315 589.65 442.907
12 0 97.1897 13.4479 1307 119.376 591.06 440.51
13 0 99.1717 13.9959 1388 118.628 591.408 442.56
14 0 102.164 12.2156 1248 121.78 591.055 442.82
15 0 108.261 13.0149 1409 118.848 591.222 441.25
16 0 108.242 12.5921 1363 121.464 590.755 437.262
17 0 113.15 12.6646 1433 122.418 590.657 433.167
18 0 119.31 13.9301 1662 119.631 590.691 432.629
19 0 120.186 13.5789 1632 113.355 590.599 431.485
20 0 123.184 13.5407 1668 117.188 590.774 429.688
21 0 126.313 12.5957 1591 117.17 590.992 431.942
22 0 129.379 12.4595 1612 120.024 590.8 427.279
23 0 136.247 14.048 1914 115.615 590.421 423.269
24 0 140.211 12.2244 1714 120.82 591.03 421.615
25 0 141.205 12.6341 1784 146.152 591.056 422.404
26 0 149.195 10.7175 1599 124.118 590.274 420.357
27 1 82.1096 12.2397 1005 119.571 591.581 451.087
28 0 84.1498 12.9769 1092 117.693 591.588 449.758
29 0 86.1043 11.9739 1031 120.272 591.739 446.479
30 0 90.062 13.735 1237 114.436 591.922 446.301
31 0 92.0912 12.9111 1189 115.939 591.461 443.49
32 0 96.211 13.5224 1301 114.826 591.808 441.908
33 0 98.2063 12.2599 1204 116.389 591.821 440.991
34 0 102.154 12.8727 1315 113.176 591.154 439.497
35 0 105.167 13.16 1384 113.398 591.503 436.69
36 1 54.0846 12.0737 653 109.64 591.79 462.72
37 0 54.1491 11.4868 622 104.78 591.104 459.913
38 0 58.053 13.0743 759 104.904 591.98 462.618
39 0 60.1553 13.1161 789 104.065 591.69 460.793
40 0 63.1092 12.8507 811 104.863 591.438 459.525
41 0 64.125 14.5497 933 100.925 591.55 457.96
42 0 67.2109 14.3429 964 102.377 591.217 456.318
43 0 69.0926 11.9405 825 108.869 591.902 457.245
44 0 72.1092 12.176 878 108.314 591.804 454.973
45 0 73.1584 12.4251 909 108.853 591.172 454.155
46 0 76.0854 12.5254 953 109.401 591.468 453.23
47 0 76.0854 12.578 957 137.023 591.468 453.087
48 0 82.1367 13.7454 1129 107.002 591.585 451.996
49 0 85.1698 14.4417 1230 106.064 591.124 450.106
50 0 87.1595 12.4829 1088 110.037 591.12 449.461
51 0 90.1267 13.2258 1192 108.872 591.339 448.577
52 0 93.113 14.4985 1350 107.777 591.697 447.423
53 0 95.0438 12.6994 1207 111.854 591.351 448.17
54 0 99.232 13.4432 1334 115.004 590.52 447.592
55 1 51.1268 12.9678 663 116.762 591.13 468.086
56 0 54.1817 12.6611 686 117.93 591.023 469.496
57 0 54.0453 13.4517 727 117.373 591.626 466.428
58 0 56.2913 13.1281 739 115.71 591.908 465.65
59 0 57.1182 13.971 798 112.543 591.67 464.83
60 0 61.0659 13.7393 839 110.801 591.002 455.579
61 0 62.1304 13.4717 837 112.552 590.867 453.583
62 0 63.0648 14.382 907 111.539 591.108 453.046
63 0 65.084 13.7054 892 118.388 591.333 450.479
64 0 68.057 13.7091 933 119.905 591.297 448.714
65 0 72.0424 13.1589 948 120.292 591.269 447.677
66 0 73.1224 13.8808 1015 118.746 591.395 448.694
67 0 76.0856 14.7465 1122 117.94 591.59 446.536
68 0 79.0686 14.7087 1163 118.205 591.226 445.609
69 0 78.1085 14.1086 1102 120.685 591.187 445.005
70 0 84.0951 14.7452 1240 117.241 590.684 445.258
71 0 85.1222 14.2149 1210 119.831 590.845 444.073
72 0 85.143 13.7181 1168 121.816 590.988 441.8
73 0 91.1511 14.1743 1292 118.024 590.927 439.351
74 0 94.1889 15.0336 1416 115.178 591.153 437.609
75 0 97.1008 14.212 1380 115.899 591.237 438.161
76 1 48.082 12.9362 622 122.299 591.117 459.003
77 0 52.1152 13.3934 698 119.638 591.307 457.751
78 0 51.0447 12.7339 650 122.878 591.483 457.275
79 0 53.0724 12.4924 663 123.403 591.819 456.243
80 0 56.0525 13.2554 743 120.268 592.217 455.565
81 0 59.0605 13.3761 790 119.129 592.423 454.581
82 0 59.0602 13.3423 788 144.753 592.421 454.454
83 0 63.0731 13.4923 851 117.17 591.504 453.515
84 0 66.058 14.5932 964 114.364 591.887 452.827
85 0 66.0946 13.3294 881 118.405 591.198 452.494
86 0 69.0663 13.7983 953 116.959 591.392 451.924
87 0 72.1632 14.2178 1026 116.146 591.503 449.919
88 0 78.1024 14.5962 1140 112.329 591.783 445.353
89 0 80.0846 15.3713 1231 111.412 591.586 447.799
90 0 81.0676 14.3707 1165 114.948 591.986 448.857
91 0 82.082 15.7404 1292 111.69 591.477 448.112
92 0 82.0383 13.7253 1126 117.88 591.588 450.021
93 0 88.1017 14.6195 1288 113.38 590.71 449.173
94 0 90.1246 12.9376 1166 118.605 592.256 449.319
95 0 92.1227 14.459 1332 114.766 591.285 447.185
96 0 98.2725 16.8918 1660 107.127 591.142 444.105
97 0 98.1076 13.5362 1328 115.917 591.517 444.82
98 0 100.215 14.3193 1435 113.533 591.144 440.353
99 0 105.183 12.7872 1345 106.543 591.379 440.146
100 0 109.246 11.5427 1261 107.025 591.32 440.14
101 0 116.176 14.2026 1650 103.387 590.66 436.588
102 1 63.2125 12.102 765 98.8327 590.659 465.625
103 0 66.145 11.5655 765 99.3333 590.42 465.464
104 0 67.0919 13.3101 893 105.01 590.075 463.339
105 0 70.1028 13.3376 935 105.27 590.789 461.297
106 0 72.0406 13.3397 961 106.127 590.782 458.948
107 0 76.1504 12.6592 964 106.615 591.483 459.342
108 0 78.0674 12.438 971 107.151 591.314 459.976
109 0 81.0458 13.1654 1067 106.626 590.802 453.864
110 0 86.0893 12.8123 1103 105.788 590.384 456.47
111 0 87.2226 12.1413 1059 110.003 590.747 451.922
112 0 93.1112 13.253 1234 105.676 590.699 453.105
113 0 96.1035 12.6322 1214 106.829 590.344 451.799
114 0 98.0927 13.1508 1290 106.902 590.469 446.759
115 1 53.1292 10.051 534 102.489 590.399 473.249
116 0 55.1032 10.3805 572 104.171 589.818 469.54
117 0 58.223 11.7479 684 100.418 590.3 469.401
118 0 60.0772 11.9513 718 100.064 589.928 467.04
119 0 63.1227 12.6896 801 97.2235 590.1 465.663
120 0 65.2443 11.4646 748 99.1136 590.348 465.576
121 0 67.156 11.4807 771 99.192 590.713 463.678
122 0 67.1484 11.5416 775 100.105 590.252 456.555
123 0 70.1293 11.1793 784 99.7653 589.988 458.946
124 0 75.0821 10.6683 801 99.6367 589.612 457.596
125 0 77.0654 11.0166 849 100.259 590.144 454.609
126 0 79.0996 10.5816 837 100.185 589.646 454.352
127 0 82.0868 11.0249 905 99.3934 589.518 450.204
128 0 79.0724 10.8382 857 99.4096 590.079 449.6
129 0 82.057 11.8942 976 98.4703 589.902 445.967
130 0 87.0956 11.4357 996 99.5773 590.452 445.986
131 0 86.0547 12.7245 1095 97.1671 589.965 446.272
132 0 93.1782 12.1166 1129 98.3463 590.086 442.864
133 0 99.237 10.7823 1070 100.226 589.161 443.795
134 0 105.202 11.9295 1255 98.7259 589.414 443.298
135 0 108.248 12.2866 1330 98.1617 589.696 440.69
136 0 111.211 12.6876 1411 99.7307 590.028 436.965
137 1 59.0618 9.53239 563 93.5293 589.757 464.103
138 0 61.1087 11.3732 695 84.4201 590.184 464.354
139 0 62.0641 8.89403 552 88.4493 589.864 462.23
140 0 65.0521 8.03971 523 89.3671 590.201 461.572
141 0 68.0491 9.39028 639 87.2081 589.599 459.845
142 0 69.1661 9.94707 688 86.1875 589.676 461.301
143 0 73.0882 10.371 758 85.7335 589.334 455.282
144 0 74.0891 8.53027 632 87.9494 590.106 457.858
145 0 79.1224 11.261 891 84.0224 589.843 454.719
146 0 80.1392 11.3053 906 84.1943 589.875 452.364
147 0 85.1517 11.2623 959 84.4651 589.965 451.458
148 0 90.1256 10.5519 951 85.5152 589.893 450.612
149 0 91.078 11.2321 1023 85.5044 589.715 450.217
150 0 93.1166 9.26795 863 88.9224 589.878 447.421
151 1 49.0336 9.21818 452 92.2876 589.319 470.403
152 0 51.0135 11.0559 564 89.4752 590.541 469.108
153 0 55.0846 9.85756 543 91.9263 589.527 467.072
154 0 54.0534 10.1566 549 92.1894 589.31 464.321
155 0 58.0245 8.53088 495 93.0545 589.731 464.493
156 0 59.0335 9.67248 571 92.4396 589.375 461.196
157 0 60.2079 10.1648 612 91.6324 589.216 463.542
158 0 62.0595 9.81316 609 91.89 588.268 462.138
159 0 67.2363 10.649 716 89.5754 588.749 461.582
160 1 122.351 6.66932 816 102.355 588.06 431.48
161 0 123.31 7.15269 882 101.553 588.557 432.516
162 0 131.209 9.18382 1205 96.3676 589.139 435.856
163 0 134.21 8.92629 1198 98.4708 587.952 430.783
164 0 139.187 10.3458 1440 96.8493 588.524 426.306
165 0 140.231 8.69278 1219 99.0525 588.648 428.011
166 0 147.147 9.38519 1381 99.95 588.298 419.72
167 0 150.118 7.02115 1054 102.17 588.421 426.877
168 0 154.241 8.66177 1336 102.396 588.469 414.497
169 0 159.136 7.87379 1253 102.484 588.369 418.638
170 0 156.257 6.56609 1026 106.269 588.326 403.942
171 0 168.257 8.81391 1483 102.576 588.969 406.717
172 1 89.1733 9.6105 857 97.4096 588.363 442.392
173 0 91.2516 8.22999 751 100.286 588.678 437.614
174 0 98.3816 11.0488 1087 94.6228 588.497 438.634
175 0 99.2556 11.1127 1103 96.4569 588.675 438.2
176 1 51.0638 9.32167 476 87.792 588.887 465.574
177 0 50.0566 8.5703 429 88.9091 589.114 465.52
178 0 53.0998 9.09609 483 89.7909 589.797 466.687
179 0 53.048 8.9353 474 89.8439 590.342 464.312
180 0 53.0741 10.2687 545 90.5394 590.222 464.82
181 0 50.1752 7.43395 373 98.252 589.97 457.772
182 0 54.183 9.24644 501 99.1178 589.756 460.321
183 0 58.0501 9.61238 558 98.4068 590.179 458.539
184 0 59.0565 10.3291 610 96.741 589.449 460.254
185 0 59.0472 9.16215 541 98.8965 589.819 460.762
186 0 61.0934 9.39545 574 100.679 590.045 453.895
187 0 62.0527 9.83036 610 100.605 590.661 453.974
188 0 64.1403 10.8512 696 98.3391 589.59 456.484
189 0 70.0443 10.0651 705 98.983 589.77 455.634
190 0 72.0715 9.89295 713 99.8752 589.712 454.847
191 0 72.0277 9.98227 719 101.42 589.509 455.377
192 0 78.3075 11.1867 876 97.8299 589.307 454.712
193 0 81.2262 12.1513 987 96.7214 589.352 451.985
194 0 83.1938 11.5033 957 98.6834 589.217 451.181
195 0 85.142 12.579 1071 97.2876 589.307 451.802
196 0 88.1188 11.0533 974 100.706 588.493 447.348
197 0 91.3179 11.575 1057 100.486 588.398 446.632
198 0 90.2062 8.44732 762 106.455 588.075 445.878
199 0 96.2375 11.0456 1063 102.233 588.458 445.505
200 0 100.219 10.4571 1048 103.36 589.099 443.936
201 0 104.41 12.1158 1265 99.6213 588.727 443.945
202 1 53.0781 9.64616 512 93.2129 589.754 469.238
203 0 59.1214 10.859 642 95.567 589.74 469.494
204 0 60.0448 11.6246 698 97.2321 589.732 461.042
205 0 62.0553 10.7485 667 91.0045 589.468 466.783
206 0 63.054 11.4822 724 88.7417 589.476 467.177
207 0 65.1411 11.0376 719 91.388 589.504 463.035
208 0 67.0766 11.4794 770 90.2922 589.003 461.003
209 0 68.1233 11.1269 758 92.1781 589.976 459.443
210 0 70.146 11.1624 783 93.4483 589.708 456.384
211 0 72.174 11.1536 805 94.4236 590.26 458.989
212 0 76.0964 11.9848 912 93.409 590.331 457.728
213 0 79.1631 13.4911 1068 90.5253 590.104 456.876
214 0 81.1647 12.1235 984 95.3913 590.947 453.369
215 0 83.1455 11.7745 979 96.0061 590.355 452.387
216 0 84.2506 11.0266 929 99.0775 590.381 449.061
217 0 90.2038 12.9374 1167 94.3625 589.237 451.048
218 0 91.1477 11.0041 1003 99.1156 589.971 450.338
219 0 95.186 11.031 1050 100.308 590.025 447.018
220 0 98.1704 11.3069 1110 99.6504 589.81 445.413
221 0 102.094 12.273 1253 100.166 590.109 445.351
222 1 55.2086 11.1577 616 105.058 590.167 465.244
223 0 55.1482 10.5715 583 113.396 588.969 463.72
224 0 55.1425 10.6089 585 153.009 587.974 463.725
225 0 60.058 12.4047 745 110.099 588.997 462.953
226 0 63.1124 12.5807 794 109.277 589.264 461.961
227 0 65.1017 12.5496 817 107.826 588.542 461.717
228 0 66.2812 11.5719 767 111.54 588.995 459.044
229 0 70.0802 12.6427 886 108.489 589.317 457.816
230 0 72.1479 12.3219 889 109.649 589.488 455.223
231 0 72.0985 11.8033 851 112.88 589.469 454.851
232 0 75.1838 12.6224 949 110.215 589.378 456.082
233 0 78.1109 13.4168 1048 108.583 589.344 454.439
234 0 79.075 12.0518 953 112.341 588.844 450.88
235 0 81.1118 13.0561 1059 111.016 589.556 450.398
236 0 86.1792 13.2398 1141 112.062 590.261 451.588
237 0 86.119 12.8427 1106 113.415 589.836 449.505
238 0 89.1918 12.8151 1143 114.248 589.763 448.306
239 0 94.1146 14.5248 1367 109.135 588.827 447.851
240 0 96.1208 12.0786 1161 117.515 589.024 449.472
241 0 100.101 15.0448 1506 109.962 588.455 448.346
242 1 51.0725 10.0054 511 111.164 589.779 469.031
243 0 53.0555 12.0063 637 107.752 589.56 468.62
244 0 52.1465 10.3363 539 114.299 589.395 467.521
245 0 59.0169 12.1152 715 107.759 590.578 467.506
246 0 61.0566 11.6122 709 108.394 590.148 466.058
247 0 64.0817 13.9353 893 101.064 590.223 468.401
248 0 63.0431 13.1497 829 106.475 589.792 462.943
249 0 67.0576 12.109 812 107.066 590.133 463.735
250 0 67.0742 11.614 779 109.38 590.123 461.225
251 0 70.069 12.8587 901 104.774 589.667 463.139
252 0 73.0361 11.9393 872 108.125 589.366 460.247
253 0 74.0743 11.9475 885 109.953 589.611 457.006
254 0 76.159 12.185 928 108.056 590.036 456.828
255 0 79.0691 11.7872 932 108.962 589.37 455.603
256 0 83.1296 13.497 1122 102.668 588.551 455.689
257 0 87.1553 13.4128 1169 103.384 589.199 452.8
258 0 86.1222 11.2979 973 110.462 589.363 447.894
259 0 89.122 12.0285 1072 110.201 588.291 445.909
260 0 91.3361 11.6383 1063 111.25 589.2 443.568
261 0 95.332 13.668 1303 106.698 590.04 441.653
262 0 102.36 12.8273 1313 107.412 589.813 443.198
263 0 101.242 11.8034 1195 109.074 589.033 438.317
264 0 108.096 13.1087 1417 106.634 588.872 441.581
265 0 107.146 9.70634 1040 101.754 590.129 444.262
266 0 108.132 11.3102 1223 103.782 588.651 441.155
267 0 112.195 10.6422 1194 105.31 589.923 440.46
268 0 118.155 11.468 1355 104.219 589.898 431.191
269 1 71.1377 7.59091 540 106.009 589.818 461.144
270 0 70.0617 7.32211 513 100.55 589.376 458.979
271 0 72.0751 9.89246 713 100.586 590.015 459.213
272 0 72.1336 9.13582 659 102.364 588.988 457.124
273 0 74.1681 10.8268 803 98.7397 588.961 457.695
274 0 76.1989 11.2075 854 99.7237 589.445 454.527
275 0 78.1396 10.6988 836 100.056 589.294 452.737
276 0 81.0925 11.3944 924 100.344 590.483 451.132
277 0 80.1514 9.09529 729 103.764 589.841 453.391
278 0 89.1081 11.9967 1069 97.4462 589.875 450.917
279 0 89.32 11.1061 992 98.4748 590.002 451.046
280 0 95.2609 11.3583 1082 97.3651 590.238 450.523
281 0 99.1949 11.9764 1188 96.3106 589.604 446.589
282 0 101.171 10.1017 1022 98.7456 589.278 447.241
283 0 102.12 9.03842 923 100.711 589.742 445.206
284 0 107.184 11.2143 1202 96.3294 589.335 443.603
285 1 59.073 10.1908 602 88.7226 589.718 469.148
286 0 59.159 10.2774 608 90.7007 590.056 464.868
287 0 62.228 11.024 686 89.4271 589.966 465.104
288 0 63.0807 11.5883 731 88.9166 589.629 461.904
289 0 66.0681 10.1865 673 91.1798 589.636 462.988
290 0 71.1105 12.2626 872 86.9633 589.73 462.083
291 0 71.2513 11.6208 828 89.349 589.598 459.074
292 0 72.2553 11.8884 859 89.8091 589.127 455.43
293 0 78.0502 12.3382 963 89.6147 588.955 455.816
294 0 80.2049 11.508 923 92.0011 588.944 452.794
295 0 81.2775 10.175 827 94.4135 589.301 455.596
296 0 87.1234 13.9802 1218 88.8851 589.012 448.741
297 0 89.1017 13.176 1174 90.9966 589.215 449.34
298 0 91.2381 11.618 1060 94.6028 589.163 449.533
299 0 94.153 12.9152 1216 93.4227 588.863 446.062
300 0 98.2086 11.8014 1159 94.6255 589.243 447.565
301 0 101.191 11.4635 1160 96.0164 589.211 445.681
302 0 102.264 11.3432 1160 97.975 588.803 440.71
303 0 106.284 11.5539 1228 96.684 589.046 443.124
304 0 110.193 10.89 1200 98.1775 588.952 437.062
305 0 115.116 11.8836 1368 96.508 589.179 439.727
306 1 58.0204 9.70349 563 91.9805 589.394 467.123
307 0 61.1899 12.7472 780 92.559 589.75 464.674
308 0 60.2302 9.31426 561 94.3708 589.763 466.585
309 0 62.1364 10.2516 637 93.4741 590.182 462.901
310 0 66.0299 11.2979 746 91.8351 589.118 460.866
311 0 67.0943 9.97104 669 94.1345 589.51 459.658
312 0 71.1331 12.4133 883 90.5096 589.522 459.616
313 0 73.117 12.2407 895 92.0693 589.989 459.616
314 0 76.1713 11.9468 910 93.156 589.935 456.778
315 0 77.2036 11.7222 905 96.7746 589.475 456.734
316 0 80.1568 11.3652 911 97.6861 590.434 455.743
317 0 81.1336 11.4749 931 98.638 590.306 453.826
318 0 85.1856 11.4691 977 98.8547 590.174 454.702
319 0 89.1503 12.1144 1080 98.438 590.299 450.657
320 0 90.1909 12.2851 1108 97.6859 590.377 451.502
321 0 94.2414 12.6378 1191 96.9572 589.112 449.409
322 0 96.2115 12.8051 1232 97.1323 590.432 447.866
323 0 98.1771 11.8969 1168 99.1541 590.271 445.38
324 0 102.211 13.8537 1416 95.4746 590.119 446.333
325 0 105.211 13.2401 1393 96.2484 590.803 446.025
326 0 107.075 12.3839 1326 98.1403 590.521 441.735
327 0 110.166 12.4902 1376 97.1097 590.722 440.388
328 0 114.184 12.9878 1483 96.5408 590.812 440.265
329 0 117.172 12.4859 1463 98.0813 590.381 438.167
330 1 63.1487 10.7999 682 90.7581 590.704 469.04
331 0 67.0948 11.3273 760 89.5434 590.209 465.475
332 0 65.1157 10.2126 665 98.3008 590.889 453.278
333 0 70.0648 12.0174 842 90 590.824 459.521
334 0 72.1047 11.6913 843 89.1886 590.938 461.693
335 0 74.0728 12.5282 928 87.5603 590.87 461.504
336 0 73.2004 10.2049 747 92.9585 590.466 456.578
337 0 79.1266 11.4121 903 91.5249 590.963 456.016
338 0 84.2291 12.9171 1088 88.1654 590.539 455.875
339 0 85.1881 11.2574 959 90.7487 589.8 453.186
340 0 88.11 12.0418 1061 89.5325 589.5 453.269
341 0 88.1588 11.3772 1003 92.3001 590.016 449.073
342 0 92.0821 10.1648 936 94.9712 590.513 444.56
343 0 97.3596 12.5822 1225 91.0098 589.971 446.078
344 0 102.149 13.8523 1415 88.8141 589.948 439.504
345 0 102.166 11.726 1198 95.1928 589.527 436.835
346 0 104.141 11.3404 1181 96.4666 589.891 437.698
347 0 110.143 11.6848 1287 95.0412 589.85 437.426
348 0 113.157 12.9555 1466 92.6542 589.853 433.705
349 0 117.241 11.7536 1378 92.6698 589.79 439.361
350 1 61.1847 11.9474 731 86.0547 589.847 463.954
351 0 66.1188 12.3868 819 92.1099 589.36 463.065
352 0 66.1274 11.4476 757 93.9643 589.032 459.857
353 0 69.0647 12.3507 853 91.2087 588.688 461.253
354 0 71.1626 12.7595 908 92.2258 588.936 456.697
355 0 75.1472 12.4556 936 92.3558 589.454 457.05
356 0 78.1306 13.375 1045 90.3435 589.675 457.823
357 0 79.1023 12.4775 987 91.617 589.476 456.637
358 0 83.1491 13.2653 1103 90.7942 589.457 452.868
359 0 86.0989 12.7644 1099 92.495 589.443 453.454
360 0 88.2344 12.1948 1076 94.8522 589.127 449.703
361 0 91.1683 13.9961 1276 92.1183 589.185 449.646
362 0 93.1965 13.2301 1233 95.1233 589.212 446.572
363 0 98.1708 13.395 1315 95.1643 589.721 448.408
364 0 101.104 12.3338 1247 97.8693 589.266 446.496
365 0 105.209 13.0027 1368 97.1001 589.675 442.082
366 0 105.15 12.8198 1348 98.365 589.717 443.422
367 0 111.189 12.6362 1405 99.427 589.248 438.98
368 0 115.086 12.8165 1475 98.7824 589.982 438.763
369 1 60.0759 11.6186 698 95.6146 589.762 466.784
370 0 61.02 11.9469 729 91.5638 589.509 465.023
371 0 62.1307 12.7795 794 90.3149 589.946 464.38
372 0 65.0446 12.3146 801 91.0062 589.745 463.544
373 0 69.0706 13.4645 930 89.3194 589.718 459.666
374 0 70.1425 12.7883 897 91.7503 590.459 461.473
375 0 74.0681 14.5137 1075 89.187 589.936 460.099
376 0 75.1544 12.2016 917 94.8419 590.358 459.842
377 0 78.0981 14.9427 1167 92.2134 589.788 449.71
378 0 80.0977 13.908 1114 95.9363 589.303 452.299
379 0 81.1032 13.378 1085 96.9576 589.493 456.922
380 0 87.1727 15.2341 1328 93.0248 589.732 453.171
381 0 88.1611 13.895 1225 97.031 589.94 453.163
382 0 91.1318 14.0785 1283 97.1317 590.146 449.896
383 0 95.1285 14.4962 1379 96.6867 590.455 450.698
384 0 96.0483 13.8472 1330 99.3203 590.219 447.598
385 0 99.1169 14.5485 1442 97.7601 590.717 445.498
386 0 103.069 14.5534 1500 97.6147 589.419 443.897
387 0 107.102 14.8923 1595 96.294 589.987 442.605
388 1 56.1637 13.3716 751 100.706 590.133 466.434
389 0 57.0954 11.7347 670 98.906 589.976 464.767
390 0 60.0824 14.2804 858 94.0629 589.738 463.073
391 0 63.2218 13.7769 871 95.4615 590.034 460.752
392 0 64.0925 12.4195 796 99.5565 590.041 460.774
393 0 63.0283 12.7562 804 100.316 589.937 464.808
394 0 67.1395 14.1496 950 97.9716 589.794 459.672
395 0 68.0414 11.7135 797 102.886 589.592 461.476
396 0 69.0591 10.7589 743 106.034 589.238 459.163
397 0 74.195 13.5993 1009 99.3171 589.502 458.9
398 0 78.1419 12.4773 975 101.525 589.055 456.679
399 0 80.1559 12.1264 972 102.694 589.12 454.59
400 0 83.1274 12.0297 1000 101.887 589.271 455.208
401 0 84.1229 12.4461 1047 101.923 589.707 451.982
402 0 89.1587 13.7283 1224 98.5082 589.659 448.963
403 0 94.1183 10.4549 984 102.203 588.958 448.419
404 0 99.0889 12.7663 1265 99.336 589.217 445.039
405 1 52.0955 13.1873 687 99.4134 590.006 465.834
406 0 54.0649 13.4653 728 97.9698 588.62 465.654
407 0 54.1347 11.8593 642 101.422 589.992 465.47
408 0 55.0273 14.3383 789 97.2687 589.487 464.024
409 0 58.0574 13.9517 810 96.8506 589.398 466.802
410 0 60.1742 14.6242 880 95.6216 589.714 463.872
411 0 61.0688 13.0345 796 99.3693 589.927 463.903
412 0 65.1523 14.8422 967 95.3133 589.777 461.224
413 0 66.3128 14.0998 935 97.3733 589.913 461.312
414 0 68.0855 15.2015 1035 95.4386 589.782 460.323
415 0 70.0905 13.5967 953 99.404 589.217 458.243
416 0 72.0492 13.9627 1006 98.6292 589.299 457.525
417 0 74.0737 13.7836 1021 98.8844 588.697 457.058
418 0 78.1929 13.9527 1091 98.857 589.134 455.336
419 0 79.1713 13.7424 1088 100.69 589.107 453.203
420 0 82.2429 14.3234 1178 99.8514 589.292 450.266
421 0 85.2466 13.6897 1167 101.368 589.23 450.722
422 0 87.0497 13.2108 1150 103.553 588.716 448.123
423 0 91.2563 14.3113 1306 100.734 589.202 448.389
424 0 97.2424 15.7956 1536 96.9479 589.176 443.802
425 0 97.3183 15.9785 1555 98.5241 588.577 443.019
426 0 96.0974 13.8505 1331 105.345 589.33 444.534
427 0 100.284 13.9104 1395 106.511 589.404 442.044
428 0 103.207 13.7781 1422 106.852 589.615 442.21
429 0 104.35 12.3622 1290 110.727 589.259 441.557
430 0 111.346 14.0823 1568 107.082 588.908 437.475
431 0 116.206 14.1387 1643 107.122 589.012 436.489
432 0 122.354 13.8941 1700 108.16 589.442 435.431
433 1 70.064 12.6028 883 108.871 588.73 460.781
434 0 68.02 12.2317 832 112.712 589.43 459.975
435 0 71.0588 15.1987 1080 107.069 589.604 456.209
436 0 76.0879 13.3267 1014 112.429 589.516 455.163
437 0 77.1187 12.9022 995 113.066 589.915 455.883
438 0 80.1681 13.4966 1082 111.64 588.76 453.568
439 0 85.0589 13.8963 1182 110.906 589.503 451.88
440 0 87.3365 14.1407 1235 110.398 588.942 448.93
441 0 91.0696 14.0222 1277 110.179 589.154 447.149
442 0 93.1545 14.3632 1338 110.179 589.533 444.841
443 0 96.1293 14.5117 1395 109.815 589.325 444.128
444 0 100.239 13.9067 1394 110.617 590.159 442.639
445 0 101.138 14.3468 1451 109.178 588.646 440.843
446 0 106.172 14.2411 1512 109.616 589.835 438.548
447 0 111.236 13.5658 1509 111.524 590.212 437.096
448 0 116.132 14.6385 1700 108.209 589.036 435.684
449 0 119.2 13.8674 1653 112.336 588.502 430.654
450 1 60.1102 10.8634 653 108.04 589.582 460.68
451 0 64.1278 11.711 751 105.056 589.542 459.577
452 0 67.0147 11.684 783 103.144 589.361 461.342
453 0 69.1 11.4038 788 104.65 589.689 460.528
454 0 72.081 11.0293 795 105.112 589.44 460.816
455 0 75.06 12.3501 927 102.602 589.517 459.581
456 0 76.1207 13.2553 1009 101.539 589.153 457.146
457 0 78.14 12.708 993 103.814 588.962 453.512
458 0 80.158 13.6231 1092 101.929 589.531 450.644
459 0 84.1539 13.3208 1121 102.461 589.179 448.983
460 0 85.0714 12.0487 1025 105.629 589.34 449.51
461 0 88.1245 12.5391 1105 105.456 589.403 445.976
462 0 88.0726 13.2164 1164 105.535 589.501 443.093
463 0 95.165 12.9249 1230 105.135 589.15 443.266
464 0 96.1586 13.8209 1329 104.546 588.883 439.439
465 0 100.083 13.7686 1378 103.477 588.276 441.808
466 0 100.094 12.3684 1238 108.355 589.103 436.276
467 0 105.179 12.5215 1317 106.931 588.349 437.226
468 0 109.22 12.5709 1373 107.529 588.674 430.685
469 0 116.19 14.6226 1699 100.863 588.406 431.693
470 1 67.1476 10.5142 706 104.48 588.344 458.237
471 0 72.1054 11.1226 802 106.089 588.714 455.761
472 0 69.1416 10.0808 697 104.455 588.392 459.636
473 0 75.1908 11.4642 862 103.387 588.49 456.574
474 0 77.1655 11.0412 852 105.326 588.405 453.921
475 0 81.0922 11.2218 910 104.552 588.294 455.134
476 0 81.0687 11.077 898 105.717 588.337 452.346
477 0 85.0986 12.5031 1064 102.613 588.526 451.807
478 0 88.1681 11.0244 972 105.772 588.245 449.199
479 0 88.1119 11.1903 986 106.374 588.993 445.917
480 0 95.0806 11.9583 1137 104.062 588.39 447.756
481 0 92.0783 11.7617 1083 106.713 588.474 439.411
482 0 98.0939 11.4278 1121 105.76 588.451 442.258
483 0 102.07 11.4823 1172 105.425 588.515 441.625
484 0 108.16 12.4908 1351 102.715 588.414 439.563
485 0 111.117 12.1133 1346 103.686 588.972 437.256
486 1 63.0294 10.63 670 103.567 589.069 460.931
487 0 64.067 10.2705 658 105.927 588.781 459.751
488 0 68.0998 11.0133 750 99.7187 588.163 458.995
489 0 68.1072 9.19139 626 98.3466 587.858 463.482
490 0 71.1091 8.92994 635 98.4992 588.14 460.337
491 0 75.1621 10.8832 818 96.1822 588.127 459.688
492 0 74.1031 9.89163 733 99.1569 588.67 454.787
493 0 80.1496 12.0275 964 94.5622 588.882 455.769
494 0 81.1393 11.0058 893 96.1321 588.906 457.791
495 0 88.2034 9.22867 814 98.8686 588.593 454.732
496 0 91.1427 9.8856 901 97.818 588.886 454.071
497 0 95.1829 12.5022 1190 92.816 588.395 449.655
498 0 95.0993 11.3881 1083 94.3278 588.247 448.796
499 0 100.166 9.55416 957 98.3856 588.579 447.474
500 0 104.139 10.0442 1046 97.9713 588.948 445.74
501 0 107.184 10.8785 1166 97.5695 589.083 440.316
502 0 111.137 11.8322 1315 97.3346 589.299 436.987
503 0 114.219 11.583 1323 99.0045 589.305 434.212
504 0 121.152 12.6371 1531 98.4742 589.221 435.061
505 0 121.154 13.0413 1580 99.9215 588.36 432.975
506 0 124.318 10.9718 1364 107.84 589.159 431.077
507 1 64.2632 10.7682 692 104.684 588.54 454.509
508 0 69.1903 11.4178 790 101.332 589.19 457.861
509 0 67.172 10.9272 734 94.8338 589.659 459.46
510 0 70.1519 9.94984 698 97.6361 589.927 457.467
511 0 71.0964 12.1525 864 94.7847 589.977 456.697
512 0 73.1615 12.0009 878 94.2506 589.726 452.511
513 0 76.0533 10.8345 824 97.5437 589.919 452.826
514 0 79.0978 11.6944 925 95.3578 589.773 456.302
515 0 79.134 11.4616 907 96.9449 589.617 453.583
516 0 84.1043 13.0433 1097 95.1048 588.656 449.387
517 0 84.0896 12.8434 1080 96.7741 589.048 449.458
518 0 87.1541 14.067 1226 96.4902 589.391 447.9
519 0 87.0765 12.8048 1115 102.848 589.62 440.491
520 0 93.1647 12.3115 1147 102.805 589.86 441.824
521 0 95.1624 12.9778 1235 101.242 589.156 444.511
522 0 96.1841 13.0479 1255 102.274 588.426 440.83
523 0 98.0952 12.335 1210 103.939 588.174 441.54
524 0 100.142 13.2612 1328 103.662 588.043 440.468
525 0 101.077 13.2375 1338 104.412 588.565 438.29
526 0 104.141 12.6655 1319 105.453 588.427 438.669
527 0 107.197 12.6216 1353 104.131 587.945 435.889
528 0 110.072 14.2634 1570 100.717 587.476 433.584
529 0 115.103 12.8667 1481 102.962 588.4 433.462
530 0 117.114 12.0481 1411 104.344 588.58 432.129
531 0 123.247 12.479 1538 102.579 588.568 430.386
532 0 123.189 12.1196 1493 104.009 588.806 426.924
533 0 131.138 12.2314 1604 103.178 588.196 422.944
534 0 135.114 13.4997 1824 101.211 587.984 420.15
535 1 79.1398 11.2965 894 99.3222 587.648 453.615
536 0 80.1134 10.9345 876 101.348 588.05 449.38
537 0 83.1937 11.5754 963 100.179 587.948 443.914
538 0 85.3265 11.9658 1021 100.165 588.884 443.792
539 0 85.0896 12.5045 1064 99.8637 588.686 443.647
540 0 87.0965 11.9523 1041 100.428 589.369 443.909
541 0 92.0656 12.2739 1130 96.146 589.434 446.273
542 0 95.2945 12.4666 1188 95.8165 588.843 445.911
543 0 96.0835 12.5516 1206 96.6534 589.143 444.002
544 0 102.261 12.0182 1229 96.6981 589.09 444.142
545 0 104.095 13.0074 1354 95.7947 588.955 440.006
546 0 103.077 11.7291 1209 100.655 589.503 438.897
547 0 107.117 13.2846 1423 96.7716 588.68 434.298
548 0 114.206 13.3618 1526 96.0583 589.045 433.76
549 0 115.076 12.8263 1476 98.2182 589.142 431.173
550 0 119.065 13.4801 1605 97.0274 589.231 428.356
551 0 121.163 13.098 1587 98.4915 588.812 426.856
552 0 130.094 13.4365 1748 96.7683 589.121 425.423
553 1 139.251 11.5116 1603 99.864 588.384 424.26
554 0 137.119 12.697 1741 99.4584 589.235 421.953
555 0 138.182 11.9986 1658 98.1707 588.765 415.475
556 0 143.153 13.4262 1922 99.8996 589.071 415.312
557 0 147.233 13.3394 1964 102.984 590.008 410.078
558 1 78.1437 9.77686 764 100.842 590.356 449.116
559 0 84.0509 10.2676 863 101.524 589.906 451.863
560 0 86.1832 11.6264 1002 100.081 589.805 452.148
561 0 86.123 11.7971 1016 101.874 589.672 451.156
562 0 85.1493 12.4135 1057 102.518 588.856 451.202
563 0 88.1153 12.2453 1079 103.94 588.908 454.208
564 0 89.2155 11.8141 1054 104.954 588.383 454.547
565 0 90.1238 12.0834 1089 105.075 589.145 451.053
566 0 91.2992 11.6102 1060 105.026 588.474 450.188
567 0 98.0762 13.0307 1278 99.3584 588.597 447.956
568 0 102.3 12.9521 1325 98.2083 589.212 443.592
569 0 105.214 11.8805 1250 98.6192 588.578 443.338
570 0 106.116 11.4497 1215 97.3054 588.721 444.581
571 0 110.214 11.0784 1221 96.5823 588.932 444.203
572 0 113.277 11.1584 1264 96.1875 588.241 441.909
573 1 61.384 11.5828 711 89.5359 588.724 466.935
574 0 63.1509 9.15268 578 92.5536 588.573 468.009
575 0 66.1385 10.7502 711 88.4037 588.091 465.027
576 0 65.0914 9.44825 615 92.4423 587.909 465.218
577 0 64.1149 10.3096 661 92.9667 588.071 464.322
578 0 67.1699 8.24774 554 98.3881 588.316 460.134
579 0 72.1098 11.8153 852 92.3967 587.932 462.556
580 0 75.1763 10.7747 810 95.2012 588.57 463.143
581 0 76.1025 11.0772 843 96.4911 588.614 462.318
582 0 77.107 10.1807 785 98.7707 588.426 463.469
583 0 79.161 9.73965 771 101.309 588.485 461.274
584 0 79.1265 9.45322 748 104.467 588.15 458.289
585 0 85.1157 11.1965 953 102.3 588.74 456.867
586 0 85.2356 11.5445 984 102.651 587.912 453.918
587 0 87.2194 10.1812 888 108.917 588.682 452.48
588 0 90.1138 10.2537 924 109.361 587.419 452.637
589 0 91.2269 11.3782 1038 109.477 588.553 453.526
590 0 94.1566 10.6631 1004 111.671 588.895 452.025
591 0 96.2317 11.5139 1108 111.296 588.848 450.264
592 0 98.1522 11.7573 1154 111.737 588.553 450.089
593 0 100.164 11.022 1104 114.794 588.108 445.297
594 0 103.214 11.481 1185 113.405 588.265 443.224
595 0 104.203 10.6811 1113 115.727 587.897 444.325
596 0 109.18 11.1467 1217 115.682 587.987 442.68
597 0 113.264 11.769 1333 113.797 588.204 441.904
598 0 117.207 11.6205 1362 114.335 588.151 439.848
599 0 121.165 11.571 1402 116.205 587.853 435.561
600 0 123.177 10.3916 1280 119.391 588.086 435.422
601 0 130.217 12.6481 1647 114.367 587.654 436.026
602 1 69.1379 10.3272 714 105.756 587.375 465.13
603 0 70.15 11.5895 813 105.301 588.253 463.06
604 0 74.1009 10.5397 781 110.522 588.828 462.688
605 0 74.0917 10.379 769 111.274 587.681 458.935
606 0 79.1115 12.4129 982 107.125 588.218 456.874
607 0 80.164 11.4765 920 110.426 588.598 455.971
608 0 85.1505 12.2372 1042 107.77 588.357 457.366
609 0 90.118 11.8844 1071 106.412 588.48 455.907
610 0 89.1461 11.9916 1069 107.069 587.887 454.676
611 0 94.1695 11.8404 1115 107.415 587.513 451.546
612 0 96.1468 11.9297 1147 108.153 587.822 449.806
613 0 98.3015 10.9052 1072 111.239 587.84 448.308
614 0 103.174 12.3093 1270 108.509 587.943 444.435
615 0 106.127 13.2105 1402 107.308 588.488 445.113
616 0 109.09 11.3576 1239 111.815 588.074 443.991
617 0 112.199 12.2015 1369 110.753 587.99 440.546
618 1 63.0476 10.9283 689 103.03 587.922 470.18
619 0 65.1407 10.8227 705 105.149 587.957 466.843
620 0 69.183 10.4505 723 105.055 587.414 465.378
621 0 71.183 11.6039 826 101.343 587.053 465.065
622 0 71.0921 11.2108 797 102.61 587.338 463.222
623 0 76.0644 10.9118 830 102.386 587.322 462.49
624 0 79.1662 12.4169 983 103.177 587.297 459.682
625 0 82.2953 12.1757 1002 99.6467 586.519 458.775
626 0 82.0865 10.7204 880 104.261 587.303 455.14
627 0 87.3833 11.2836 986 101.912 586.526 454.017
628 0 90.128 11.4948 1036 101.265 587.066 454.775
629 0 94.0798 12.5107 1177 99.0909 586.707 453.318
630 0 94.1607 12.33 1161 101.549 586.834 451.096
631 0 96.0938 12.0819 1161 102.93 587.223 447.759
632 0 100.121 11.8856 1190 100.573 586.694 448.987
633 0 102.204 10.8704 1111 103.637 586.903 445.941
634 0 106.258 12.5544 1334 100.975 587.657 442.98
635 0 112.247 12.3835 1390 100.983 587.217 443.974
636 0 115.181 12.5368 1444 100.487 587.17 440.67
637 0 120.18 13.5297 1626 97.869 586.031 439.74
638 0 122.285 12.2746 1501 101.892 586.821 434.67
639 0 126.275 12.0372 1520 102.709 586.161 432.272
640 0 131.28 11.9439 1568 103.848 586.79 431.335
641 0 135.126 12.3514 1669 103.9 586.666 429.434
642 1 68.2135 9.04513 617 101.755 587.553 464.063
643 0 68.0277 9.55493 650 101.234 587.158 462.911
644 0 72.1554 10.9347 789 98.8302 586.488 460.254
645 0 76.414 11.6733 892 97.5336 586.945 460.2
646 0 78.1157 11.1373 870 98.1149 586.367 461.692
647 0 81.1123 10.6519 864 98.6018 586.982 461.933
648 0 84.2246 11.2556 948 98.98 587.225 456.336
649 0 85.4386 11.0372 943 100.14 586.455 455.038
650 0 90.3498 12.197 1102 98.1987 587.283 452.822
651 0 93.3022 12.3041 1148 98.7761 587.258 453.182
652 0 96.2942 12.3476 1189 98.8343 587.603 451.966
653 0 97.1846 11.9772 1164 100.79 587.334 448.875
654 0 99.2149 11.9942 1190 101.266 587.07 449.092
655 0 103.23 10.9174 1127 102.129 587.013 445.311
656 0 107.275 11.82 1268 102.543 587.086 443.348
657 0 110.171 10.7379 1183 105.425 587.222 440.756
658 0 115.188 11.3466 1307 104.07 586.428 437.627
659 0 120.243 11.9259 1434 102.261 586.725 442.236
660 0 122.305 10.8008 1321 106.049 587.511 436.207
661 0 129.204 13.5135 1746 100.617 587.444 434.859
662 0 133.289 12.3341 1644 104.389 587.167 432.628
663 1 74.4138 9.74282 725 100.429 586.981 460.137
664 0 78.297 11.6224 910 98.0648 587.416 458.982
665 0 81.1654 10.7928 876 102.485 587.772 456.427
666 0 83.2123 12.2458 1019 100.002 587.333 455.619
667 0 85.2297 11.6861 996 100.889 587.065 458.192
668 0 89.2677 12.076 1078 101.398 587.25 453.918
669 0 92.1837 11.8893 1096 102.251 587.651 451.959
670 0 95.3844 11.3016 1078 103.648 588.085 452.05
671 0 96.2672 11.1461 1073 105.328 588.15 449.702
672 0 101.208 12.5879 1274 102.029 587.667 449.1
673 0 104.215 12.0041 1251 103.994 588.247 446.68
674 0 107.353 11.3737 1221 105.136 587.898 443.898
675 0 110.157 10.5123 1158 106.688 587.662 440.153
676 0 114.227 11.127 1271 104.754 588.306 440.243
677 0 121.102 12.4276 1505 102.167 588.383 437.172
678 1 68.3366 10.419 712 99.1138 587.906 462.688
679 0 71.1587 10.8349 771 102.454 588.748 461.114
680 0 75.106 8.36151 628 106.557 589.232 459.922
681 0 77.1933 10.1952 787 102.839 589.119 459.426
682 0 83.063 10.8351 900 102.368 588.679 453.118
683 0 84.2726 10.1338 854 104.639 588.386 453.261
684 0 87.2118 11.6383 1015 102.52 588.427 448.579
685 0 91.316 11.17 1020 102.458 588.572 450.367
686 0 93.2043 12.1561 1133 101.13 587.75 450.42
687 0 93.1326 11.0595 1030 105.235 588.372 445.415
688 0 98.1998 11.3137 1111 103.416 588.253 450.361
689 0 100.285 11.8862 1192 104.732 588.857 446.763
690 0 105.25 12.9407 1362 103.419 589.227 444.703
691 0 106.155 11.2759 1197 108.49 589.313 442.699
692 0 111.218 12.3362 1372 107.148 588.681 439.864
693 0 116.266 12.1101 1408 108.852 588.578 439.077
694 0 118.258 12.3206 1457 109.439 588.347 437.612
695 0 123.29 13.3668 1648 107.791 587.512 437.568
696 0 127.351 13.5217 1722 108.184 587.872 435.591
697 1 70.1195 9.72626 682 103.434 587.963 462.394
698 0 73.2484 12.1504 890 99.7933 589.062 462.33
699 0 73.2591 10.4424 765 104.652 588.918 460.902
700 0 78.2286 11.6198 909 102.991 588.974 459.102
701 0 78.1336 10.6868 835 106.92 588.899 456.304
702 0 83.1007 11.5282 958 105.89 588.421 455.419
703 0 83.0876 11.0847 921 108.345 588.102 456.395
704 0 84.1085 9.59475 807 113.936 588.864 451.061
705 0 88.1962 10.7601 949 112.011 588.883 450.847
706 0 94.056 12.9072 1214 106.257 588.788 450.124
707 0 95.1028 12.1973 1160 109.281 588.841 446.191
708 0 100.274 12.765 1280 107.811 588.353 447.109
709 0 102.196 12.0357 1230 111.105 588.815 442.968
710 0 103.164 12.0682 1245 112.885 588.532 442.6
711 0 108.35 11.9428 1294 112.92 588.945 441.872
712 0 108.24 11.0495 1196 116.832 588.527 439.351
713 0 117.187 12.2624 1437 112.96 589.182 440.287
714 0 119.309 12.7987 1527 113.695 588.726 436.269
715 0 122.306 13.7524 1682 111.74 588.599 433.667
716 0 127.232 12.9134 1643 114.442 588.608 433.765
717 0 128.368 12.2539 1573 116.875 589.083 431.062
718 0 135.242 13.1763 1782 113.621 589.556 428.075
719 0 139.236 13.1503 1831 113.584 588.84 425.788
720 0 143.331 13.2491 1899 118.147 588.322 421.225
721 0 147.5 14.1424 2086 118.14 589.238 416.888
722 0 149.174 14.0775 2100 120.44 589.24 413.899
723 0 155.095 14.0882 2185 120.569 589.52 415.468
724 0 163.143 13.8468 2259 120.422 589.043 412.413
725 0 171.164 13.7237 2349 119.332 589.24 410.413
726 0 174.347 14.5228 2532 117.533 588.939 406.25
727 0 178.265 13.4407 2396 120.507 588.235 401.471
728 0 185.314 14.1058 2614 118.269 587.792 399.849
729 1 97.2621 11.4639 1115 119.824 589.388 443.021
730 0 101.124 12.2819 1242 117.651 589.502 443.815
731 0 105.198 12.5002 1315 116.364 588.995 443.622
732 0 107.316 12.44 1335 116.969 588.847 439.482
733 0 112.285 12.5039 1404 115.92 588.989 438.815
734 0 118.293 13.6103 1610 113.561 589.047 432.881
735 0 119.196 11.3175 1349 119.886 588.513 431.588
736 0 127.417 12.3531 1574 117.494 589.027 430.569
737 0 127.268 12.2498 1559 120.091 588.722 426.214
738 0 134.438 13.0617 1756 118.748 588.489 424.822
739 0 140.345 13.8516 1944 117.528 588.472 421.459
740 0 144.199 13.1763 1900 119.357 588.374 419.969
741 0 150.465 12.6874 1909 121.787 588.653 416.693
742 0 153.255 12.4237 1904 123.828 588.231 411.809
743 0 163.316 12.9136 2109 121.948 588.387 410.333
744 1 89.0877 12.4821 1112 111.003 587.78 448.92
745 0 89.1425 10.1186 902 117.665 588.1 448.651
746 0 87.1091 10.4467 910 115.831 587.648 445.378
747 0 94.0997 11.8066 1111 111.308 587.941 447.209
748 0 98.0759 11.5115 1129 112.99 588.826 448.001
749 0 101.159 11.0025 1113 114.988 587.867 443.563
750 0 99.2239 11.731 1164 114.957 587.723 435.237
751 0 106.152 10.2306 1086 116.656 588.546 442.905
752 0 111.198 11.502 1279 113.628 588.4 437.858
753 0 115.284 11.7883 1359 112.677 588.316 436.731
754 0 119.193 11.9554 1425 112.544 588.394 433.22
755 0 121.195 11.1143 1347 115.318 587.951 428.73
756 0 126.22 12.7634 1611 110.87 587.82 428.096
757 0 134.169 14.0793 1889 106.211 587.948 422.521
758 0 138.334 13.2506 1833 109.674 588.123 421.698
759 0 140.319 13.2983 1866 110.013 587.673 417.001
760 0 146.279 13.276 1942 109.445 587.909 415.51
761 0 154.257 15.8113 2439 102.02 588.036 407.629
762 0 156.199 13.9438 2178 107.316 588.002 410.308
763 0 161.167 14.2523 2297 107.296 587.734 410.513
764 0 166.308 13.5051 2246 109.501 587.495 406.877
765 0 170.45 13.5172 2304 110.583 587.435 400.299
766 0 174.207 11.7848 2053 115.672 586.314 398.158
767 0 176.272 11.9588 2108 117.281 587.475 391.268
768 0 183.462 11.7027 2147 116.797 587.578 386.193
769 0 187.356 14.4858 2714 109.479 587.403 388.368
770 1 11.0004 3.63623 40 76.35 588.85 486.425
771 0 10.0012 5.69931 57 80.0877 588.719 481.825
772 0 18.0539 3.37877 61 78.5246 588.262 485.115
773 0 19.0509 4.35674 83 77.2651 588.193 485.494
774 0 15.0008 3.19982 48 79.875 588.104 483.75
775 0 18.0397 4.3238 78 76.7436 588.654 487.667
776 0 16.0049 4.18622 67 77.5821 588.642 486.03
777 0 16.0005 0.749978 12 77.1667 588.667 491.167
778 0 13.0002 1.23075 16 79.875 589.062 488.25
779 0 17.0033 4.05803 69 74.0145 588.87 488.957
780 0 14.0007 1.57135 22 79.8182 588.545 487.273
781 0 14.0017 2.1426 30 74 589.067 488.333
782 0 14.0136 5.99419 84 70.9643 588.798 488.631
783 0 13.0004 1.53841 20 79.2 588.55 486.65
784 1 245.311 12.4617 3057 110.903 587.069 365.816
785 0 256.338 12.7722 3274 111.511 587.273 359.31
786 0 264.314 13.0413 3447 112.048 586.843 351.448
787 0 272.447 13.4705 3670 111.532 587.056 355.63
788 1 208.259 10.4485 2176 116.781 587.086 376.568
789 0 216.243 11.8801 2569 112.044 588.11 385.912
790 0 216.287 11.8222 2557 116.668 587.503 363.92
791 0 228.488 13.4493 3073 110.266 587.485 369.736
792 0 236.394 12.6526 2991 113.103 588.409 367.87
793 1 252.35 16.5841 4185 106.643 587.245 335.284
794 0 256.35 15.9704 4094 109.719 586.478 339.249
795 0 259.413 13.0024 3373 120.932 587.29 338.993
796 0 266.324 13.2546 3530 121.412 586.722 340.636
797 0 275.632 12.894 3554 124.131 587.167 334.887
798 0 287.499 13.7044 3940 124.218 587.621 327.475
799 0 296.41 14.3821 4263 122.967 587.743 318.678
800 0 305.352 14.7338 4499 122.841 587.252 326.228
801 0 308.569 13.3746 4127 128.341 586.868 322.259
802 0 320.601 15.1029 4842 122.649 587.587 321.751
803 0 333.528 14.8473 4952 124.506 586.966 310.181
804 0 345.46 15.0379 5195 125.573 587.495 305.193
805 0 346.453 10.7605 3728 137 587.443 311.558
806 0 43.0269 7.11184 306 96.9314 587.284 469.464
807 0 45.1212 8.35527 377 97.8276 587.621 471.716
808 0 46.1219 7.95718 367 100.471 587.49 472.005
809 0 46.0935 8.11395 374 100.971 587.112 471.139
810 0 46.0935 8.07056 372 107.906 586.137 471.062
811 0 51.0842 10.2967 526 99.1825 587.067 471.046
812 0 49.0295 8.99458 441 100.345 585.678 470.773
813 0 51.0798 10.6696 545 95.4771 586.519 464.695
814 0 53.0451 8.55875 454 108.11 586.987 471.656
815 0 54.09 10.0018 541 106.86 587.481 471.412
816 0 61.1464 11.4479 700 103.043 587.324 469.401
817 0 65.1674 9.71345 633 106.272 587.787 467.256
818 0 62.0997 9.67798 601 106.88 587.112 467.902
819 0 58.0856 10.123 588 108.452 587.765 469.995
820 0 59.0808 11.1881 661 106.596 587.48 469.918
821 0 59.1037 10.6931 632 106.823 586.769 470.758
822 0 59.0989 13.6889 809 93.5328 586.888 470.21
823 0 57.0377 12.5356 715 98.1329 586.115 468.145
824 0 58.1778 15.0573 876 91.7945 586.203 468.545
825 0 61.0833 15.6016 953 89.319 586.974 468.994
826 0 59.0939 13.9947 827 94.2297 588.418 469.561
827 0 63.226 16.3224 1032 77.4099 587.776 470.828
828 0 61.0736 15.7024 959 80.1929 587.855 471.051
829 0 64.0494 15.6442 1002 79.005 587.937 471.221
830 0 63.0622 18.1408 1144 75.375 587.496 469.812
831 0 64.1239 16.5149 1059 77.5156 587.304 470.343
832 0 63.1854 14.3388 906 82.1424 587.458 470.008
833 0 64.0905 17.6469 1131 75.298 587.13 469.534
834 0 63.1028 15.7045 991 79.4924 587.177 470.333
835 0 63.0537 15.1617 956 79.6851 587.096 469.906
836 0 63.1081 16.3054 1029 77.5899 587.727 469.489
837 0 63.0316 14.4848 913 80.0723 586.981 470.409
838 0 62.0408 13.201 819 86.9341 587.204 468.189
839 0 63.0612 14.0974 889 82.4038 586.841 469.133
840 0 65.1368 15.9511 1039 77.0462 587.101 470.47
841 0 64.1508 13.8112 886 82.246 587.983 469.751
842 0 65.1227 16.1388 1051 77.4852 587.901 469.821
843 0 67.1461 16.0396 1077 77.0019 587.268 469.501
844 0 64.1122 15.7848 1012 82.7619 588.269 468.619
845 0 63.1537 14.821 936 89.6154 587.583 466.98
846 0 64.1133 14.7707 947 80.5238 587.701 468.143
847 0 65.0587 14.802 963 80.4746 588.907 468.319
848 0 65.0598 14.8325 965 80.6694 588.46 468.995
849 0 65.0771 14.1063 918 82.2734 589.236 468.342
850 0 66.0346 15.0073 991 80.1796 588.857 467.348
851 0 65.1068 15.0983 983 80.1282 588.436 467.864
852 0 65.1333 13.7411 895 81.7162 588.888 468.66
853 0 67.1258 15.7615 1058 76.758 588.232 468.485
854 0 69.1201 16.4786 1139 74.9025 587.771 468.994
855 0 66.1239 14.3972 952 79.4212 588.35 469.493
856 0 66.0756 16.1028 1064 76.0226 588.09 467.122
857 0 66.0753 15.2553 1008 76.4345 587.989 467.532
858 0 68.085 16.3472 1113 73.9793 588.055 467.702
859 0 67.1008 15.1861 1019 76.5868 588.212 468.408
860 0 67.0911 16.2466 1090 74.4202 587.961 469.526
861 0 69.1029 15.7012 1085 74.5484 588.536 468.401
862 0 67.107 14.7675 991 76.3451 587.995 467.137
863 0 67.2172 14.9069 1002 77.2116 588.264 468.301
864 0 68.0701 14.7348 1003 76.5543 588.147 466.487
865 0 70.0642 17.1985 1205 71.3577 587.723 466.392
866 0 65.1157 14.2055 925 78.1081 587.813 467.596
867 0 68.1179 16.7797 1143 72.2362 587.986 468.093
868 0 66.0727 12.91 853 79.1067 587.56 468.608
869 0 68.0423 15.314 1042 74.5614 588.235 469.114
870 0 69.0968 16.1368 1115 72.8332 587.869 466.902
871 0 67.1762 14.3206 962 76.3659 587.603 465.667
872 0 68.1619 14.5829 994 75.0553 587.25 465.6
873 0 69.098 16.7443 1157 71.3423 587.642 467.107
874 0 68.0418 15.9755 1087 72.8933 587.585 466.304
875 0 71.0689 15.5905 1108 72.1363 587.244 465.501
876 0 68.1416 13.8095 941 76.4102 588.126 466.554
877 0 69.087 15.2416 1053 73.4359 587.363 465.908
878 0 70.1829 14.7187 1033 73.2198 587.448 465.046
879 0 70.1545 16.9198 1187 69.904 587.605 466.311
880 0 70.0687 17.9395 1257 68.5187 587.354 465.007
881 0 71.1698 17.2826 1230 69.3821 587.822 464.159
882 0 70.0416 16.3332 1144 70.8969 587.088 465.012
883 0 70.1533 16.1646 1134 71.5926 588.01 464.825
884 0 71.0487 14.4127 1024 75.1484 587.745 464.195
885 0 71.1884 19.4695 1386 67.1118 587.048 466.25
886 0 70.2215 16.5904 1165 70.7742 586.937 464.8
887 0 69.0764 16.0113 1106 73.6618 587.954 463.568
888 0 70.1119 16.4451 1153 75.3703 587.449 464.309
889 0 70.0545 16.9011 1184 73.0794 587.61 463.579
890 0 68.0984 14.2588 971 78.8548 587.57 462.399
891 0 68.129 14.678 1000 79.761 587.969 461.318
892 0 68.1206 14.3569 978 80.4294 587.687 461.8
893 0 70.0924 15.7221 1102 76.1642 587.407 461.366
894 0 70.1336 14.9144 1046 75.9293 588.139 464.286
895 0 69.0503 14.8587 1026 76.4483 588.21 463.422
896 0 70.075 16.8106 1178 71.7776 587.446 464.319
897 0 71.1832 15.1019 1075 73.3795 587.527 464.226
898 0 72.1013 20.3741 1469 65.1477 587.157 461.129
899 0 71.1521 17.0761 1215 71.1523 587.649 460.994
900 0 73.227 17.0839 1251 69.9041 587.645 463.262
901 0 72.1204 17.9699 1296 68.1049 587.993 463.1
902 0 72.1163 16.6953 1204 70.0847 588.47 463.904
903 0 70.0906 14.7381 1033 72.2469 587.834 462.468
904 0 71.1623 15.57 1108 72.3303 588.427 464.087
905 0 71.1967 15.6047 1111 72.045 587.884 463.217
906 0 70.0767 14.6839 1029 73.9359 588.258 462.576
907 0 73.1556 16.5127 1208 68.75 587.622 463.289
908 0 71.149 15.9946 1138 71.1019 588.228 465.015
909 0 70.092 14.0672 986 75.1531 588.536 461.619
910 0 73.1445 15.2848 1118 72.2844 587.69 460.047
911 0 73.205 19.9713 1462 65.0089 588.091 461.575
912 0 72.0644 16.4297 1184 69.8201 588.524 462.59
913 0 71.1444 15.6302 1112 71.3327 587.148 460.696
914 0 73.1568 15.6923 1148 70.7291 588.941 463.787
915 0 72.0483 15.5174 1118 70.4276 588.623 463.928
916 0 71.0914 16.0216 1139 70.0992 588.528 462.439
917 0 68.0759 14.7923 1007 72.7021 588.271 460.123
918 0 70.0529 14.0751 986 73.718 588.886 461.526
919 0 74.0434 15.734 1165 69.1648 588.378 460.971
920 0 71.1675 15.9764 1137 70.2665 588.587 459.383
921 0 70.0695 14.1859 994 72.661 588.422 461.852
922 0 72.1124 15.6977 1132 69.6599 588.274 462.061
923 0 72.0566 14.9049 1074 70.0624 587.573 461.277
924 0 71.0615 13.819 982 72.0346 588.433 461.535
925 0 72.0957 16.062 1158 68.9076 588.61 461.712
926 0 71.1168 14.1598 1007 72.426 588.613 461.07
927 0 71.0432 16.6941 1186 68.1003 588.002 460.665
928 0 71.1889 16.1682 1151 68.6777 588.273 462.74
929 0 73.1587 16.8948 1236 66.7435 588.374 461.094
930 0 73.0318 15.4453 1128 68.7261 587.994 463.942
931 0 71.1344 16.4337 1169 68.7006 587.98 462.194
932 0 71.0652 15.9853 1136 69.0114 588.661 461.81
933 0 69.1033 15.0789 1042 69.6929 588.003 460.845
934 0 72.0408 13.8394 997 70.9579 588.534 459.801
935 0 74.1431 15.6184 1158 67.4741 588.93 462.278
936 0 73.1337 16.2032 1185 66.5173 588.2 462.076
937 0 71.1314 14.9301 1062 69.1412 588.429 461.124
938 0 71.0675 16.5054 1173 66.1927 588.381 460.748
939 0 72.2861 15.079 1090 67.9422 588.688 461.484
940 0 72.0459 15.0876 1087 68.437 588.577 461.726
941 0 72.1432 15.7049 1133 68.03 588.021 463.722
942 0 72.0834 14.6636 1057 69.106 589.229 461.508
943 0 74.2177 16.8693 1252 65.2891 588.695 460.411
944 0 71.1805 15.0744 1073 68.0839 588.64 459.453
945 0 72.0804 14.9 1074 68.189 588.187 461.546
946 0 71.0742 15.4768 1100 67.7582 588.128 461.724
947 0 74.1501 14.0121 1039 68.2772 587.953 457.988
948 0 73.0729 16.682 1219 64.8368 588.273 459.966
949 0 73.0724 17.7358 1296 63.6142 587.846 460.423
950 0 74.0703 17.6994 1311 63.6896 588.215 464.547
951 0 73.0546 19.1911 1402 61.6205 587.365 464.169
952 0 72.0314 14.2993 1030 68.8282 588.565 459.935
953 0 73.0252 15.6795 1145 66.4148 588.103 460.443
954 0 73.1235 20.0073 1463 61.3055 587.785 463.43
955 0 73.166 16.155 1182 66.3773 588.119 460.049
956 0 73.0537 15.2901 1117 68.2005 587.783 460.376
957 0 73.1045 19.4106 1419 62.0021 587.732 459.593
958 0 75.0801 18.4337 1384 62.5816 587.608 460.126
959 0 72.0853 17.2435 1243 65.2631 588.202 459.126
960 0 73.0859 14.8455 1085 66.6885 588.519 459.737
961 0 74.2096 19.4449 1443 60.7914 587.607 463.16
962 0 75.1116 16.1493 1213 64.0915 588.844 462.242
963 0 71.0246 14.7414 1047 67.744 588.484 460.072
964 0 74.2044 14.9587 1110 65.982 588.774 461.522
965 0 72.1445 15.8848 1146 66.8953 587.984 461.688
966 0 73.12 16.3567 1196 65.6271 588.149 462.463
967 0 75.0751 18.981 1425 62.2477 588.446 462.112
968 0 74.2201 15.6966 1165 63.3056 588.249 460.128
969 0 73.0558 14.7422 1077 64.7474 588.629 462.214
970 0 73.2177 15.8022 1157 63.4028 588.379 459.532
971 0 75.1374 14.387 1081 64.815 588.405 460.837
972 0 75.1818 15.3761 1156 64.4386 588.408 459.58
973 0 76.1637 19.4187 1479 59.0561 588.132 461.545
974 0 71.0626 13.8188 982 66.7739 588.662 460.754
975 0 74.1233 15.3663 1139 64.7138 588.148 460.692
976 0 70.145 14.2277 998 66.3056 588.974 460.592
977 0 77.0739 18.9039 1457 59.4166 588.429 458.528
978 0 73.1114 13.7461 1005 65.995 588.362 461.726
979 0 74.0594 15.042 1114 64.3241 588.713 461.43
980 0 74.1198 17.4447 1293 61.3124 587.78 461.568
981 0 73.0795 15.8184 1156 65.1834 588.641 461.606
982 0 76.1058 18.2772 1391 61.2538 587.714 459.104
983 0 73.1251 15.2478 1115 64.1399 588.189 460.764
984 0 75.0973 18.536 1392 60.1954 587.945 460.793
985 0 76.1796 20.4648 1559 57.4894 586.926 462.488
986 0 74.1069 16.5572 1227 64.6487 588.342 458.485
987 0 74.0525 16.2857 1206 65.1294 588.703 459.461
988 0 74.1559 18.2723 1355 59.7911 588.204 464.807
989 0 72.0745 14.6238 1054 67.2704 588.956 460.837
990 0 75.0887 19.2306 1444 60.6981 588.055 460.026
991 0 73.1682 14.8972 1090 66.2367 587.143 460.784
992 0 72.0792 15.2055 1096 66.2016 587.932 459.906
993 0 73.225 15.4046 1128 65.4583 587.598 461.016
