time division length width area intensity CMx CMy
0 0 69.095 9.6389 666 108.131 285.935 462.806
1 0 72.0542 11.9077 858 104.754 286.317 463.658
2 0 74.1183 10.2809 762 106.165 286.15 461.437
3 0 77.0802 12.714 980 102.471 286.188 459.302
4 0 79.1572 10.9403 866 105.055 286.084 460.535
5 0 80.1178 10.16 814 106.477 286.942 460.074
6 0 85.1837 11.1524 950 104.508 287.48 455.947
7 0 88.1981 10.4991 926 105.467 287.497 453.807
8 0 91.1727 9.78363 892 105.213 287.61 457.655
9 0 95.2872 9.74948 929 103.747 286.647 454.133
10 0 101.216 11.7077 1185 102.277 286.554 450.992
11 0 102.125 12.6904 1296 101.925 286.528 451.01
12 1 57.0317 11.5199 657 109.776 287.731 470.528
13 0 57.1428 11.55 660 109.652 287.702 469.953
14 0 59.0619 12.1906 720 107.658 287.226 468.367
15 0 60.0832 11.3176 680 110.56 287.574 468.828
16 0 62.1589 12.2267 760 109.228 287.304 467.295
17 0 65.0604 12.9111 840 105.563 287.306 467.825
18 0 64.0861 11.5314 739 111.51 287.363 464.825
19 0 66.0855 11.9845 792 111.083 287.468 464.128
20 0 71.1985 12.8514 915 107.907 287.599 462.127
21 0 72.2309 11.7401 848 110.19 287.664 462.348
22 0 76.1268 12.8076 975 107.262 287.481 460.973
23 0 78.176 13.751 1075 105.741 287.251 459.024
24 0 81.0969 13.527 1097 106.916 287.824 457.572
25 1 157.322 12.8908 2028 105.502 287.678 426.532
26 1 84.1337 11.767 990 112.515 287.057 456.326
27 0 88.1549 13.0679 1152 109.423 288.162 454.472
28 0 93.2727 13.2729 1238 108.566 288.304 454.317
29 0 95.1832 14.3618 1367 107.029 288.988 450.841
30 0 97.4702 14.189 1383 108.354 288.717 448.634
31 0 101.317 14.0944 1428 106.782 288.218 447.885
32 1 53.2366 11.9842 638 100.624 288.903 472.392
33 0 54.1821 12.015 651 97.553 289.382 471.951
34 0 54.0309 12.1042 654 92.6972 288.593 474.755
35 0 55.1272 10.7569 593 94.4604 289.304 472.094
36 0 59.0531 11.4135 674 92.0668 288.921 471.717
37 0 59.1558 11.5289 682 92.7566 288.893 470.567
38 1 120.172 10.0689 1210 103.613 288.789 436.275
39 1 64.1089 13.3991 859 84.3667 289.077 464.463
40 0 64.135 11.7876 756 89.0913 288.997 462.749
41 0 66.2032 12.2351 810 88.2753 289.165 461.552
42 0 69.1177 12.3268 852 88.5986 288.958 464.25
43 0 72.1509 12.7926 923 89.5341 289.471 463.871
44 0 74.0633 12.3948 918 90.4074 289.573 460.688
45 0 76.1008 12.0104 914 91.8775 288.837 459.321
46 0 78.0939 11.6782 912 92.6107 289.246 460.408
47 0 81.0442 11.9688 970 92.6629 288.793 458.278
48 0 83.1091 11.9121 990 94.2929 289.215 455.743
49 0 86.0666 11.5608 995 95.7246 288.847 456.832
50 0 89.2213 13.0574 1165 93.8146 288.79 452.27
51 0 92.1127 12.1482 1119 95.2038 288.952 454.752
52 0 94.1062 12.029 1132 98.0433 289.324 452.223
53 1 47.1792 10.5767 499 94.8898 289.224 474.248
54 0 48.1026 10.0203 482 96.8257 288.45 475.969
55 0 52.1622 12.9596 676 92.8136 287.657 467.935
56 0 53.1853 12.5411 667 94.907 287.327 468.763
57 0 54.0492 12.3406 667 94.0285 289.126 472.544
58 0 56.0341 12.885 722 92.7452 289.493 470.896
59 0 57.0636 11.4959 656 94.6829 289.171 472.291
60 0 58.0946 12.101 703 94.6757 288.959 469.71
61 0 61.0858 12.5234 765 94.1137 288.769 468.826
62 0 64.0488 12.1001 775 95.9316 288.91 467.582
63 0 65.0319 11.9018 774 96.5284 289.27 468.664
64 0 66.0926 11.9075 787 96.5578 289.212 465.558
65 0 69.0781 11.8996 822 96.5669 289.116 462.198
66 0 70.2821 12.1795 856 96.4264 289.204 464.961
67 0 72.0454 11.5066 829 101.013 289.443 460.848
68 0 76.0971 12.9046 982 98.5866 289.096 460.279
69 0 77.2177 11.7201 905 100.907 288.62 457.649
70 0 76.085 10.2254 778 106.99 288.548 458.772
71 0 82.0974 10.9991 903 104.893 288.698 457.726
72 0 84.3078 11.9206 1005 103.109 288.506 454.097
73 0 91.1501 12.1338 1106 100.576 288.332 453.692
74 1 44.1312 10.6501 470 96.9617 288.362 475.211
75 0 43.1503 10.2665 443 97.8555 288.424 476.099
76 0 46.1612 11.3948 526 96.27 288.221 474.977
77 0 46.0531 11.7256 540 95.3944 289.202 475.615
78 0 48.0313 11.4092 548 94.0985 289.124 474.858
79 0 49.031 11.1358 546 96.044 289.496 475.513
80 0 52.0552 11.411 594 95.3704 290.116 474.692
81 0 52.1537 10.5841 552 97.5562 290.263 474.029
82 0 52.1537 10.5266 549 130.694 291.248 474.124
83 0 55.0743 11.4391 630 95.0889 289.571 471.457
84 0 60.0771 12.6338 759 91.7734 289.856 470.026
85 0 60.1436 11.1234 669 94.6413 289.184 469.867
86 0 60.077 11.8848 714 94.1008 289.338 469.798
87 0 65.135 10.7776 702 95.1054 289.399 468.073
88 0 67.0845 12.3725 830 92.8928 289.717 466.136
89 0 68.0943 12.4386 847 93.5396 289.243 467.169
90 0 69.1372 11.8171 817 96.7809 289.087 460.089
91 0 71.1489 11.3002 804 96.8159 288.714 461.154
92 0 75.1189 12.0875 908 94.1619 288.744 459.632
93 0 77.189 12.3204 951 93.8097 287.916 458.433
94 0 80.1349 11.7053 938 96.3582 289.398 456.253
95 0 82.1861 11.0968 912 98.034 288.442 455.702
96 0 84.0737 12.2036 1026 95.0419 288.601 458.061
97 0 89.0833 11.3602 1012 96.9802 289.029 456.02
98 0 91.1878 11.4818 1047 96.7478 288.676 454.848
99 0 95.2359 12.2853 1170 89.8462 288.644 448.209
100 1 49.2035 11.3813 560 88.3768 288.846 472.905
101 0 54.0924 12.1828 659 86.8422 288.798 474.212
102 0 54.155 12.1872 660 83.8879 288.561 475.253
103 0 55.0574 12.4234 684 84.636 288.091 473.279
104 0 57.169 10.985 628 87.3567 287.659 472.924
105 0 57.1006 11.8388 676 87.2574 288.361 472.138
106 0 58.1214 12.2674 713 87.5554 288.407 471.285
107 0 61.0904 12.9317 790 88.3722 288.913 469.805
108 0 63.1243 14.3368 905 86.1149 288.728 468.104
109 0 64.0718 13.0479 836 90.323 288.425 465.047
110 0 66.0489 13.0358 861 89.8734 288.087 466.921
111 0 69.1437 12.9585 896 90.2076 287.431 465.955
112 0 68.1249 12.0074 818 93.9303 287.421 463.198
113 0 69.0572 13.6553 943 93.3531 287.278 464.891
114 0 70.0975 11.8549 831 97.5295 287.539 462.603
115 0 75.0822 11.7338 881 97.9739 287.28 463.052
116 0 77.1341 12.6274 974 96.1386 286.765 462.987
117 0 80.0286 13.0578 1045 96.5904 287.467 460.592
118 0 83.1102 11.948 993 99.3051 286.765 459.007
119 0 85.1209 12.1709 1036 99.2017 287.192 457.313
120 0 87.1939 11.6866 1019 101.292 287.474 455.762
121 1 50.1633 11.4426 574 98.176 288.779 472.385
122 0 50.1736 11.5001 577 98.5095 287.958 473.442
123 0 47.0707 9.77252 460 96.3804 287.922 468.354
124 0 49.0895 9.83916 483 83.7785 287.232 471.857
125 0 51.0816 10.2777 525 84.9771 288.114 469.484
126 0 53.1721 9.64792 513 85.6764 287.326 469.415
127 0 55.0664 12.5485 691 92.4269 286.796 472.9
128 0 57.0823 10.7389 613 92.385 287.07 474.398
129 0 61.121 11.7308 717 91.039 287.126 471.446
130 0 63.1015 12.0758 762 90.8701 287.403 470.471
131 0 63.0827 11.5246 727 92.3549 287.358 467.651
132 0 66.0618 11.1411 736 93.6481 287.109 467.826
133 0 68.1132 12.0241 819 93.884 286.12 464.692
134 0 70.1794 11.6843 820 94.8098 286.315 465.127
135 0 73.1253 11.8837 869 95.7353 286.727 463.399
136 0 76.0833 12.7098 967 94.0652 287.072 464.392
137 0 76.117 11.0094 838 99.7399 286.921 460.685
138 0 80.0992 13.6081 1090 95.5156 287.378 460.448
139 0 82.1319 11.9564 982 100.158 286.995 458.655
140 0 84.1991 12.4467 1048 100.193 287.108 456.319
141 0 88.0751 12.5348 1104 98.6848 286.784 456.586
142 0 89.1122 10.9861 979 101.903 287.942 456.775
143 1 51.0186 10.7216 547 101.835 288.256 472.792
144 0 53.0903 11.4522 608 99.9885 288.681 471.571
145 0 49.0534 9.45909 464 98.7047 288.261 465.739
146 0 50.0412 11.3107 566 96.5813 288.325 465.588
147 0 54.0699 8.89589 481 99.1123 288.426 467.042
148 0 55.0801 10.3123 568 98.0123 288.519 465.202
149 0 58.0864 10.7426 624 97.1747 288.454 462.663
150 0 58.0228 9.84097 571 98.8406 288.597 461.608
151 0 60.0149 11.0806 665 96.7459 287.471 458.301
152 0 63.0492 10.468 660 97.8773 288.75 458.518
153 0 66.2168 10.813 716 96.102 288.395 458.279
154 0 69.1235 11.0527 764 96.733 288.028 455.096
155 0 73.0728 11.0301 806 95.9876 288.61 454.223
156 1 36.0554 7.95997 287 85.7387 288.118 476.202
157 0 38.206 9.44878 361 86.6731 288.316 473.039
158 0 36.0716 10.4791 378 88.9921 286.95 472.817
159 0 36.0245 7.05076 254 91.4173 287.272 472.579
160 0 41.1265 10.1638 418 86.3493 286.452 471.749
161 0 40.1184 8.37521 336 89.3869 287.092 471.833
162 0 40.0604 6.93952 278 91.7662 287.27 471.432
163 0 39.0224 7.38038 288 92.1285 286.538 471.642
164 0 45.1068 12.3706 558 94.7366 286.149 476.106
165 0 51.1013 12.5633 642 90.2991 286.45 473.692
166 0 45.0708 10.184 459 97.5599 286.092 477.368
167 0 49.1063 10.7726 529 95.9357 286.278 474.766
168 0 51.0702 10.9457 559 94.5814 286.311 474.594
169 0 52.0716 9.23728 481 96.3181 286.106 476.281
170 0 54.039 10.9366 591 94.6497 285.97 473.054
171 0 58.1278 10.4769 609 94.8604 286.757 470.033
172 0 58.0648 10.5227 611 94.3486 286.355 470.257
173 0 61.1524 10.0568 615 93.6911 286.233 470.735
174 0 63.1616 12.5868 795 89.3975 286.132 466.921
175 0 65.106 10.767 701 91.204 286.295 466.852
176 0 65.0598 11.2358 731 90.5595 286.283 466.551
177 0 70.0954 10.9565 768 90.1745 286.349 465.091
178 0 75.1694 10.7624 809 89.3696 286.748 464.444
179 0 77.0508 10.9538 844 88.6931 286.928 461.672
180 0 78.14 10.1229 791 91.1403 286.573 459.107
181 0 83.133 11.6199 966 88.7526 286.214 456.719
182 0 87.2324 9.80141 855 94.7216 286.304 455.835
183 0 89.1491 10.0955 900 93.3911 286.346 455.309
184 0 93.22 11.1993 1044 91.1236 285.817 453.526
185 1 48.0257 11.8895 571 86.9807 286.497 473.734
186 0 51.0216 11.6617 595 86.9193 286.593 471.205
187 0 53.0313 13.162 698 84.2536 287.292 473.016
188 0 55.1048 12.576 693 84.7489 286.136 472.799
189 0 57.1229 13.6373 779 83.8062 286.357 470.288
190 0 56.0963 11.3198 635 89.5701 286.184 469.852
191 0 61.1043 12.4705 762 87.2546 286.178 468.808
192 0 62.0648 12.2292 759 88.3044 286.559 468.555
193 0 64.071 12.3613 792 88.2664 286.557 467.087
194 0 66.118 12.7499 843 88.1851 286.452 465.531
195 0 69.092 11.9551 826 89.4032 286.522 464.283
196 0 72.1766 12.2062 881 87.8366 286.036 462.672
197 0 72.2882 11.7308 848 90.73 286.028 462.423
198 0 76.335 12.8644 982 88.7332 285.939 461.633
199 0 78.134 13.5664 1060 90.9198 286.763 459.91
200 0 82.2745 14.2693 1174 90.4574 287.279 457.175
201 0 85.1714 13.737 1170 91.7385 287.049 456.873
202 0 85.231 14.1146 1203 94.2278 287.53 454.811
203 1 45.0666 10.6953 482 99.7531 286.701 474.838
204 0 45.0794 11.0694 499 97.9479 286.254 474.95
205 0 46.1461 11.5069 531 101.94 287.147 474.977
206 0 47.1281 12.1159 571 102.343 286.933 474.194
207 0 49.2284 14.0163 690 99.0971 286.909 472.128
208 0 45.0485 10.2334 461 96.9262 285.302 475.024
209 0 39.0219 6.79106 265 101.743 285.743 475.087
210 0 47.0409 10.6928 503 97.6978 287.942 476.748
211 0 52.0282 10.2444 533 99.0713 288.415 475.651
212 0 52.0561 12.2752 639 95.7058 288.473 474.689
213 0 53.0471 11.4804 609 97.6486 288.389 472.067
214 0 55.0941 11.199 617 97.8476 289.319 471.63
215 1 119.229 12.9331 1542 103.073 287.848 438.325
216 1 58.0646 9.79944 569 98.9279 288.896 472.406
217 0 59.1101 10.4043 615 98.2114 287.387 468.688
218 0 63.1271 11.4531 723 96.7137 288.358 469.207
219 0 66.1014 11.6185 768 95.6901 288.223 467.816
220 0 63.0555 9.73745 614 100.355 288.033 468.79
221 0 68.0849 9.81129 668 99.5973 288.281 467.599
222 0 71.1043 11.7011 832 97.3534 288.075 464.208
223 0 73.1206 11.4605 838 97.0609 287.272 464.104
224 0 75.0897 11.7326 881 97.21 287.185 460.002
225 0 78.0658 11.2341 877 98.2794 287.19 458.343
226 0 81.0964 10.6663 865 97.3457 287.55 461.757
227 0 84.0901 11.1666 939 96.5538 286.812 458.745
228 1 43.044 9.87361 425 96.8376 287.753 477.092
229 0 47.0444 11.2872 531 94.2693 288.019 475.977
230 0 50.0769 11.083 555 92.4631 288.308 476.631
231 0 50.0416 11.5104 576 93.4479 288.368 472.823
232 0 49.0448 10.9492 537 95.1993 288.017 473.33
233 0 52.0328 12.6651 659 90.7436 287.862 471.014
234 0 56.0722 12.3769 694 88.6052 287.426 471.929
235 0 57.0538 12.5846 718 88.9234 288.095 472.231
236 0 58.055 12.1781 707 92.2942 288.57 469.167
237 0 60.1032 12.5284 753 90.421 288.052 468.72
238 0 62.0968 11.4821 713 91.6297 288.074 468.149
239 0 62.1528 12.8715 800 90.1038 287.044 466.862
240 0 65.0944 12.1055 788 90.3718 287.379 465.574
241 0 66.0419 11.5381 762 91.6837 286.909 465.984
242 0 68.0805 11.5745 788 91.1015 287.744 466.588
243 0 68.1135 11.5396 786 92.612 287.475 462.637
244 0 73.122 14.3049 1046 86.0468 287.667 460.426
245 0 74.1034 12.577 932 88.5268 287.854 459.119
246 0 78.3469 12.9169 1012 86.6897 287.684 458.81
247 0 79.0969 12.4025 981 87.9908 287.625 457.13
248 0 80.0557 11.0798 887 89.6449 286.415 459.861
249 0 83.0754 11.3391 942 89.362 286.857 458.392
250 0 86.1115 10.9277 941 87.5282 286.827 453.917
251 0 92.1244 16.4886 1519 76.1692 286.408 443.465
252 1 46.1022 9.65247 445 82.0472 286.36 473.146
253 0 47.0678 10.9842 517 80.6209 287.315 472.05
254 0 47.0333 8.22822 387 83.9509 287.331 470.69
255 0 49.0881 10.4099 511 81.2192 286.748 467.783
256 0 53.0735 10.363 550 79.8964 286.365 467.238
257 0 53.084 11.7549 624 78.7131 286.913 464.317
258 0 52.0808 8.92844 465 82.8022 287.176 465.852
259 0 54.083 9.48542 513 82.423 286.207 464.468
260 0 59.064 11.5299 681 79.0396 286.991 465.264
261 0 61.0674 11.1025 678 79.441 287.628 465.783
262 0 63.2317 11.7821 745 78.8993 287.468 463.599
263 0 61.0796 10.9038 666 80.9099 286.715 461.5
264 0 63.1118 10.6319 671 82.4963 286.562 456.757
265 0 68.149 11.5923 790 80.9722 287.428 455.166
266 0 70.1214 14.4749 1015 76.7862 286.166 454.966
267 0 72.0771 11.4322 824 82.1468 287.265 454.335
268 0 74.0878 12.3772 917 82.5114 287.478 451.644
269 0 79.1611 13.6178 1078 83.6781 287.125 451.481
270 0 82.2322 14.3131 1177 87.2761 286.987 451.066
271 0 84.3156 11.4451 965 92.7845 287.39 450.645
272 0 88.3685 13.2174 1168 90.5231 286.189 453.049
273 1 47.1296 10.9697 517 91.4236 286.919 472.321
274 0 45.0955 10.8658 490 86.4286 287.514 466.531
275 0 46.149 11.5062 531 79.9416 286.725 466.395
276 0 50.1134 10.3366 518 81.5907 288.017 473.506
277 0 51.1021 9.88217 505 84.9109 287.473 475.457
278 0 52.0982 11.0752 577 85.1178 287.506 475.151
279 0 53.0461 12.5551 666 82.8949 287.913 472.556
280 0 56.1072 11.9236 669 84.5022 288.155 470.018
281 0 58.0623 11.591 673 84.0416 287.682 471.755
282 0 61.0764 11.6903 714 83.6947 287.412 469.587
283 0 62.1351 11.0726 688 84.9186 287.993 469.562
284 0 66.0352 11.7513 776 84.5438 287.532 467.349
285 0 67.1104 10.5498 708 86.2401 287.85 470.349
286 0 69.0703 13.2908 918 84.0425 287.771 462.873
287 0 73.1348 12.6479 925 84.0249 287.806 464.696
288 0 74.1166 11.4819 851 87.3302 287.602 462.38
289 0 76.0589 12.0827 919 87.3613 287.538 462.606
290 0 80.0648 11.2284 899 88.9266 287.57 460.405
291 0 82.0528 11.127 913 90.0756 287.424 457.337
292 0 86.1616 11.7802 1015 89.531 286.535 456.47
293 0 89.1777 13.1759 1175 87.5549 286.829 457.473
294 0 91.2049 12.7405 1162 90.3855 286.481 447.855
295 0 94.1472 13.6276 1283 89.4271 286.793 450.18
296 0 96.1657 12.5409 1206 91.5315 286.731 450.605
297 0 101.136 12.3596 1250 91.5968 286.737 449.167
298 1 53.1303 12.4976 664 95.5527 287.066 469.236
299 0 50.0366 10.4923 525 95.6076 287.076 467.192
300 0 52.0311 10.8205 563 92.5702 287.616 466.552
301 0 56.0577 10.2573 575 93.2835 287.663 468.237
302 0 57.1196 10.3292 590 93.8695 287.207 465.086
303 0 60.0347 11.9098 715 92.3776 287.308 462.436
304 0 63.0712 10.6229 670 93.7821 287.29 463.393
305 0 64.075 12.5166 802 91.02 287.53 463.5
306 0 66.0387 11.9172 787 92.4803 287.616 461.935
307 0 70.1144 11.9662 839 91.8796 287.266 458.951
308 0 72.0555 12.5875 907 91.7817 287.572 456.624
309 0 77.1116 11.2564 868 92.4286 287.915 457.73
310 0 79.1054 12.0599 954 92.6541 286.995 453.866
311 0 79.0685 10.6616 843 92.8221 287.251 455.404
312 0 83.168 10.5569 878 94.9066 287.451 449.843
313 0 85.143 9.95972 848 95.3679 287.792 450.814
314 0 88.0979 12.5656 1107 100.515 287.867 453.607
315 0 95.1138 13.016 1238 101.088 287.275 451.973
316 0 97.1406 13.8871 1349 100.173 288.093 450.059
317 0 99.1119 12.0873 1198 102.356 287.963 452.785
318 0 101.152 13.1386 1329 102.797 287.986 445.387
319 0 104.072 12.8757 1340 102.915 287.672 445.925
320 0 111.111 11.295 1255 104.363 287.849 445.613
321 0 111.064 12.9655 1440 101.878 286.703 442.243
322 0 116.076 13.896 1613 99.3001 287.974 445.4
323 0 118.066 14.0515 1659 100.516 287.815 440.005
324 0 120.17 13.6973 1646 102.208 287.67 439.099
325 0 124.106 13.1581 1633 103.861 288.403 438.364
326 0 129.156 13.0463 1685 103.779 288.079 436.576
327 0 134.146 13.3512 1791 102.611 288.169 433.831
328 0 136.114 13.8193 1881 102.635 288.165 432.132
329 0 143.246 13.1383 1882 104.267 287.798 428.824
330 0 147.235 14.5754 2146 102.106 288.292 427.653
331 0 154.231 14.8025 2283 102.615 287.255 402.86
332 0 157.161 14.0047 2201 105.305 287.917 405.273
333 0 163.185 15.5345 2535 102.455 287.645 398.637
334 0 169.162 14.5718 2465 102.785 288.001 403.621
335 0 176.413 14.5397 2565 100.382 287.899 406.519
336 0 182.178 13.119 2390 103.828 287.547 403.832
337 0 186.252 13.6374 2540 101.23 288.022 403.558
338 0 193.207 13.4105 2591 101.613 287.628 402.716
339 0 199.333 13.8712 2765 102.711 286.773 402.506
340 0 205.313 13.2773 2726 105.089 286.572 397.774
341 1 131.149 13.5418 1776 103.302 287.301 438.442
342 0 135.152 14.2284 1923 100.811 287.548 430.94
343 0 137.181 13.9086 1908 95.5975 287.222 427.922
344 0 141.183 12.799 1807 99.3437 287.241 421.408
345 0 149.264 13.8479 2067 95.7397 286.88 425.135
346 0 157.547 13.4881 2125 96.3581 287.103 420.867
347 0 162.243 13.4551 2183 96.8058 287.185 420.616
348 1 75.1065 9.63964 724 94.9392 287.394 465.651
349 0 76.1737 12.0908 921 100.833 287.224 458.85
350 0 78.0925 13.3816 1045 87.3981 287.13 453.487
351 0 82.2435 13.3749 1100 81.9509 286.995 456.052
352 0 86.1867 12.4265 1071 83.014 286.789 455.282
353 0 88.149 12.8306 1131 82.7471 286.367 449.403
354 0 89.2494 10.9581 978 86.2106 286.746 447.971
355 0 93.1493 12.7215 1185 83.7949 287.118 449.149
356 0 97.2988 11.6137 1130 85.3982 287.327 447.319
357 1 54.1653 11.7603 637 90.8697 287.506 470.945
358 0 56.2483 12.8004 720 87.6194 287.232 470.111
359 0 55.0871 12.3259 679 86.4507 286.782 467.934
360 0 59.2056 16.3836 970 77.9866 286.243 465.061
361 0 57.1423 12.7751 730 86.589 286.995 464.31
362 0 59.1169 11.2658 666 89.1291 286.547 463.518
363 0 64.1497 10.8808 698 89.3453 287.056 463.049
364 0 65.0988 10.7068 697 89.6169 287.484 462.917
365 0 64.3054 12.254 788 88.9188 287.102 459.459
366 0 67.1651 12.2683 824 88.9672 287.093 456.891
367 0 71.18 10.3259 735 93.3769 287.222 463.139
368 0 75.1596 11.6685 877 90.7263 287.808 464.327
369 0 77.1189 11.8129 911 91.2986 287.586 461.948
370 0 80.1051 12.7083 1018 90.39 287.516 460.655
371 0 83.2037 11.9105 991 91.557 287.543 460.013
372 0 87.3292 12.3441 1078 90.167 287.61 459.109
373 0 86.1623 12.1515 1047 91.9226 287.329 452.162
374 0 92.1546 12.8154 1181 89.3285 288.218 456.342
375 0 93.197 11.7815 1098 92.4171 287.634 452.1
376 1 52.111 11.4947 599 91.2187 288.573 473.364
377 0 51.0687 10.4957 536 91.3731 288.321 474.431
378 0 52.0239 10.0338 522 94.9234 288.13 473.429
379 0 55.0419 11.8819 654 91.2125 288.193 472.058
380 0 57.0595 11.9875 684 91.3611 288.384 472.193
381 0 59.0714 11.8839 702 91.4729 288.56 471.798
382 0 60.0288 12.0609 724 91.9199 288.733 469.649
383 0 62.1246 12.1852 757 92.0727 288.59 469.041
384 0 64.3671 12.1801 784 91.9362 288.25 468.372
385 0 66.1236 12.3708 818 91.7873 288.738 467.484
386 0 69.1186 13.1658 910 90.7121 287.122 465.108
387 0 72.1085 12.9388 933 89.865 287.636 466.442
388 0 73.0843 11.9451 873 93.0412 287.515 463.662
389 0 76.1646 12.6437 963 91.9107 287.327 460.119
390 0 76.1575 12.0934 921 94.1194 287.464 452.999
391 0 81.2314 13.4185 1090 90.6459 287.69 455.219
392 0 83.1012 12.5871 1046 91.0067 287.599 457.395
393 1 44.0736 9.73372 429 92.5664 287.846 475.939
394 0 46.0853 11.4136 526 86.6388 286.928 476.194
395 0 46.062 10.1819 469 89.7079 286.898 476.582
396 0 50.1811 12.4549 625 87.2224 287.258 475.845
397 0 51.1366 12.2222 625 88.5248 287.245 473.563
398 0 54.1819 11.4983 623 89.3692 286.846 473.128
399 0 54.1606 11.2259 608 89.4819 286.954 473.558
400 0 56.1403 11.6672 655 89.2382 287.012 471.954
401 0 58.0791 12.5002 726 87 287.348 470.295
402 0 59.1239 12.3977 733 88.749 287.005 470.794
403 0 61.1443 13.3945 819 86.9597 286.442 470.473
404 0 63.2912 13.351 845 87.1172 286.566 468.428
405 0 65.1737 12.6892 827 88.2975 287.21 467.638
406 0 65.2047 12.4684 813 89.5892 285.989 464.554
407 0 66.2204 11.1446 738 91.7168 287.295 464.98
408 0 71.0517 11.7942 838 89.92 287.431 465.977
409 0 75.0915 13.3171 1000 86.825 287.201 464.127
410 0 75.1406 12.3502 928 89.681 287.42 459.557
411 0 78.2236 12.4515 974 89.9209 287.611 459.368
412 0 81.2752 12.9191 1050 89.161 287.479 457.888
413 0 86.1111 12.5187 1078 88.9787 287.664 458.642
414 0 90.2452 13.6739 1234 88.1661 287.253 450.169
415 0 90.3132 12.1134 1094 90.4049 286.708 452.017
416 1 45.0694 11.4046 514 87.2665 286.776 473.77
417 0 48.0739 10.6087 510 86.049 286.137 475.171
418 0 48.0167 11.2669 541 83.7579 287.449 477.723
419 0 50.039 10.4718 524 84.5095 287.349 475.8
420 0 52.0612 11.4673 597 83.4791 287.42 474.072
421 0 54.063 10.1733 550 85.0618 287.482 475.642
422 0 54.1477 9.6403 522 82.8467 286.443 470.778
423 0 58.1018 10.9807 638 81.1176 286.995 467.345
424 0 61.0618 13.0196 795 80.9484 287.303 471.616
425 0 61.175 10.9195 668 83.7814 286.754 472.787
426 0 65.088 13.7199 893 79.3942 287.27 466.492
427 0 68.1526 12.9269 881 80.4824 287.398 467.704
428 0 69.2156 11.2547 779 83.1938 287.454 465.787
429 0 72.0698 11.4334 824 82.2682 287.157 467.193
430 0 76.0859 12.2493 932 81.2758 286.795 465.616
431 0 78.3343 11.8084 925 82.6 286.89 462.399
432 0 81.0669 11.4227 926 82.852 287.356 465.3
433 1 41.0287 10.8948 447 84.3065 287.031 481.906
434 0 42.0948 11.189 471 85.3949 287.403 480.314
435 0 45.213 12.2089 552 84.6051 287.4 478.33
436 0 43.1579 8.71219 376 85.2952 287.295 475.375
437 0 46.0833 10.0253 462 84.0822 287.758 473.671
438 0 46.0789 9.37522 432 85.0671 287.046 477.921
439 0 47.0362 10.0348 472 84.6462 287.602 477.617
440 0 50.0983 11.0183 552 86.9547 287.134 478.486
441 0 49.1093 9.61121 472 86.2797 286.782 473.525
442 0 54.1786 11.9973 650 86.3554 286.826 473.642
443 0 54.1256 10.5865 573 88.4869 286.946 473.818
444 0 56.0986 12.4424 698 86.4355 287.848 473.615
445 0 59.0864 10.4423 617 88.1524 286.246 473.857
446 0 61.1365 12.7256 778 83.9512 287.53 469.9
447 0 63.1301 10.8348 684 86.7339 288.023 468.773
448 0 67.0421 11.9328 800 84.5512 286.642 467.649
449 0 69.117 12.6452 874 84.2071 286.103 465.668
450 0 70.1521 11.4751 805 86.405 286.503 466.68
451 0 73.0974 10.958 801 88.1124 286.502 466.439
452 0 76.0686 14.132 1075 85.4772 287.28 462.91
453 0 77.0708 10.3152 795 91.166 287.225 463.106
454 0 81.0752 13.136 1065 87.5512 286.874 460.735
455 0 88.0918 12.6005 1110 91.9423 287.151 454.786
456 0 91.1256 12.5102 1140 92.6325 286.661 455.113
457 1 51.197 12.7937 655 86.2824 287.205 476.134
458 0 54.0824 12.2036 660 86.5909 287.002 475.273
459 0 56.2528 12.4616 701 85.6805 286.506 473.989
460 0 56.0394 11.028 618 88.4045 286.856 475.604
461 0 56.0724 12.5017 701 87.485 286.933 471.397
462 0 61.1963 14.0531 860 84.4337 287.19 471.356
463 0 61.0636 11.9711 731 88.5048 286.934 472.127
464 0 65.0801 13.1838 858 86.1282 286.762 470.289
465 0 67.0603 12.869 863 86.8714 286.307 469.026
466 0 69.1127 13.355 923 85.8472 287.156 470.316
467 0 70.148 12.0032 842 87.5226 286.444 464.348
468 0 73.1828 12.8446 940 85.7692 286.765 464.592
469 0 76.1971 12.8745 981 86.8073 286.632 460.13
470 0 79.215 12.7754 1012 87.2826 286.679 461.013
471 0 84.1575 12.1082 1019 89.7056 287.146 463.161
472 0 85.1711 12.833 1093 91.3696 286.7 457.179
473 0 89.0901 12.4481 1109 92.5717 286.891 458.989
474 0 92.1318 11.8743 1094 94.4132 286.806 459.122
475 0 92.1533 11.0577 1019 97.1227 286.71 455.732
476 0 100.127 13.403 1342 92.5939 286.826 453.402
477 0 102.212 13.3448 1364 94.0132 286.912 450.079
478 1 64.08 10.1592 651 90.7112 286.988 474.409
479 0 62.1438 10.4435 649 92.3883 287.108 473.935
480 0 57.1651 12.4552 712 100.038 286.188 466.58
481 0 58.0518 12.3338 716 100.244 286.257 471.528
482 0 61.0498 13.7593 840 96.3881 285.844 466.395
483 0 62.112 12.5258 778 99.3213 285.925 465.613
484 0 66.098 13.0412 862 97.2239 285.711 465.516
485 0 66.0772 13.0605 863 98.6686 286.29 459.481
486 0 68.0884 12.9097 879 99.157 286.371 458.96
487 0 72.11 14.4501 1042 94.833 286.196 463.198
488 0 75.097 13.3161 1000 96.603 285.596 464.432
489 0 77.0794 12.2082 941 99.3581 285.238 461.967
490 0 79.056 13.5221 1069 97.5154 286.028 457.602
491 0 82.183 14.9179 1226 96.4478 286.018 455.208
492 0 86.1847 14.086 1214 96.6722 286.66 455.138
493 0 89.1966 15.5387 1386 94.3153 286.778 451.572
494 0 90.3189 14.5263 1312 96.577 286.812 451.225
495 0 94.2228 13.3195 1255 98.9888 286.525 448.445
496 0 94.2464 13.6133 1283 98.2845 286.679 447.355
497 0 99.4077 14.5763 1449 96.3106 286.324 442.917
498 0 101.157 13.7806 1394 97.208 286.133 442.08
499 1 51.1241 10.7777 551 89.9764 286.448 464.221
500 0 52.1627 9.94964 519 87.7765 286.95 463.36
501 0 53.1018 8.81325 468 85.0791 287.43 465.297
502 0 58.0775 12.5178 727 80.0509 287.087 463.66
503 0 57.0854 10.5982 605 83.5041 287.352 463.074
504 0 60.0529 9.69145 582 85.0894 287.034 460.036
505 0 62.0586 10.7157 665 83.4977 286.558 460.447
506 0 65.0489 9.96173 648 85.1466 286.761 455.046
507 0 67.1098 11.3694 763 83.6409 286.046 458.127
508 0 68.1694 12.0435 821 83.5907 286.452 456.743
509 0 71.1059 11.1805 795 85.1447 286.45 455.364
510 0 74.1704 13.5229 1003 82.1765 286.495 453.055
511 0 76.1035 11.4055 868 85.9332 286.736 453.676
512 0 76.1069 11.6941 890 86.6461 286.734 452.922
513 0 78.1105 11.0228 861 88.734 286.641 449.971
514 0 83.0812 11.6513 968 86.6488 286.506 448.663
515 0 85.0838 12.4466 1059 86.1143 286.202 444.564
516 0 88.1064 10.4419 920 90.3685 285.202 443.104
517 0 92.1505 12.7943 1179 86.391 285.596 439.792
518 0 94.0688 11.0664 1041 90.2238 285.983 443.359
519 0 100.138 12.4628 1248 88.601 286.255 440.003
520 1 51.1514 10.8306 554 81.6264 286.787 465.52
521 0 55.1558 12.7638 704 88.0866 286.158 471.885
522 0 56.0853 12.2135 685 87.8307 285.762 473.218
523 0 56.0581 10.6853 599 91.4508 285.457 472.2
524 0 60.1087 11.4626 689 89.164 285.432 471.475
525 0 63.068 11.5114 726 88.905 286.112 469.081
526 0 64.0645 13.3303 854 85.4356 285.98 470.904
527 0 67.0959 12.2511 822 86.2178 285.489 468.006
528 0 69.0483 12.2668 847 87.1535 284.858 464.769
529 0 70.099 11.7976 827 88.6469 285.882 464.729
530 0 72.086 12.0273 867 88.6055 286.173 464.723
531 0 76.0433 14.4523 1099 84.3321 286.099 461.463
532 0 78.1705 13.1507 1028 87.4066 286.828 461.548
533 0 80.2472 12.5487 1007 88.4806 286.317 461.025
534 0 83.245 11.8205 984 91.0356 286.534 460.324
535 0 86.1586 13.3243 1148 89.1916 285.947 455.708
536 0 90.0702 13.4451 1211 88.1577 286.571 457.734
537 0 91.1441 13.0233 1187 89.8981 286.273 454.324
538 0 94.1342 12.7796 1203 90.7847 286.391 452.032
539 0 96.1161 12.4121 1193 91.9522 285.891 451.189
540 0 102.087 14.0077 1430 88.9189 286.553 450.069
541 1 54.0881 11.5552 625 92.92 287.21 475.158
542 0 56.0988 11.5332 647 94.4297 286.915 474.385
543 0 58.2248 12.6063 734 93.6526 286.76 471.244
544 0 58.1369 10.7333 624 99.6651 286.726 469.795
545 0 63.2401 13.3776 846 93.4657 286.852 471.447
546 0 62.1548 11.1496 693 99.8745 287.341 470.186
547 0 65.1028 12.1654 792 97.0657 287.273 468.5
548 0 66.0488 12.1577 803 98.7995 286.827 466.971
549 0 68.1095 13.7132 934 96.0225 287.015 466.503
550 0 71.1167 12.0928 860 98.7954 286.933 466.509
551 0 74.1209 13.8827 1029 95.6054 287.297 463.371
552 0 76.1052 12.4959 951 98.8023 287.397 463.043
553 0 79.1762 12.9205 1023 98.2483 286.791 461.082
554 0 80.1941 11.8213 948 102.151 287.488 458.667
555 0 84.0679 12.7992 1076 93.3197 286.613 458.895
556 0 86.237 12.6976 1095 95.9242 287.146 459.893
557 0 85.0982 12.0332 1024 98.9248 288.107 461.042
558 0 87.1148 12.5352 1092 92.7811 287.818 456.979
559 1 47.0668 10.4745 493 93.6815 287.716 478.763
560 0 46.0168 11.0394 508 92.0571 287.472 477.783
561 0 48.0131 10.8929 523 92.1625 287.323 480.363
562 0 47.076 12.448 586 100.133 286.273 476.13
563 0 47.0424 10.7775 507 103.211 286.197 479.696
564 0 48.0716 11.0668 532 104.133 285.596 475.318
565 0 50.0341 10.4129 521 104.693 286.507 476.564
566 0 53.0336 11.6153 616 100.018 286.596 476.144
567 0 52.0463 10.5675 550 101.875 286.835 474.598
568 0 55.042 12.4814 687 96.2402 287.448 474.525
569 0 55.0309 12.0659 664 97.5632 286.715 472.375
570 0 59.0793 13.1857 779 93.0706 286.814 471.357
571 0 59.0848 11.695 691 95.7352 286.453 472.233
572 0 63.0832 13.078 825 91.9455 285.887 470.939
573 0 63.1582 10.2916 650 96.5815 286.703 472.771
574 0 64.0923 12.638 810 94.1765 286.327 471.609
575 0 69.1678 12.7661 883 93.2797 286.063 470.085
576 0 69.0857 12.5496 867 95.8547 285.968 467.852
577 0 70.109 11.1969 785 98.3185 286.29 468.787
578 0 72.2132 10.2751 742 99.8383 286.949 468.729
579 1 39.0096 9.9719 389 97.7661 286.676 481.504
580 0 41.0401 10.7943 443 96.0361 287.084 480.436
581 0 40.0842 9.30541 373 98.9517 287.249 481
582 0 40.1436 10.2133 410 102.82 286.759 480.256
583 0 42.0149 10.6391 447 103.362 287.217 478.841
584 0 45.0241 10.4833 472 103.856 287.091 479.962
585 0 42.0419 10.7274 451 108.647 287.579 476.721
586 0 44.0236 10.7442 473 108.19 286.704 478.493
587 0 45.0335 9.85933 444 114.309 287.376 477.119
588 0 46.0289 9.34196 430 117.486 286.137 477.212
589 0 48.0748 11.9189 573 112.363 286.937 476.869
590 0 50.0472 10.9896 550 114.744 287.425 477.129
591 0 50.09 10.9802 550 116.469 287.467 475.111
592 0 53.0162 11.1287 590 116.141 287.107 476.229
593 0 51.0348 10.7378 548 119.721 286.651 475.416
594 0 54.0862 12.2397 662 115.819 286.884 474.115
595 0 56.0823 12.339 692 116.303 286.211 474.074
596 0 58.026 12.3738 718 116.114 286.171 474.94
597 0 60.0418 12.5579 754 115.981 286.549 475.257
598 0 62.0554 11.4253 709 119.296 286.632 473.839
599 0 60.0577 12.8377 771 118.231 286.167 473.078
600 0 62.144 11.5055 715 122.302 286.147 470.75
601 0 66.1643 13.8292 915 116.2 285.752 469.843
602 0 66.1568 12.6971 840 119.421 285.376 470.96
603 0 67.0712 13.016 873 119.835 286.084 468.598
604 0 69.1009 13.4441 929 117.857 285.608 469.425
605 0 73.0652 13.3032 972 117.293 284.85 466.861
606 0 73.0581 12.36 903 120.677 285.42 467.282
607 0 76.1037 12.5487 955 120.297 285.796 466.068
608 0 78.0971 13.0607 1020 119.4 285.535 465.033
609 0 81.1991 12.9066 1048 118.293 285.851 462.961
610 1 42.0446 11.9635 503 112.984 285.298 482.694
611 0 42.071 13.3821 563 110.384 285.103 481.284
612 0 41.0876 12.1204 498 109.303 285.548 480.253
613 0 41.0376 11.6722 479 104.804 286.1 477.67
614 0 42.0581 9.7722 411 107.584 285.718 476.491
615 0 43.0706 11.0052 474 107.757 286.114 475.603
616 0 43.0252 11.3887 490 106.551 286.294 476.761
617 0 44.159 11.9568 528 106.102 286.163 476.233
618 0 47.1427 12.0061 566 104.774 285.73 475.535
619 0 47.1427 12.0485 568 143.901 286.729 475.519
620 0 47.0598 11.4535 539 107.49 285.278 473.128
621 0 49.0858 12.0401 591 104.154 285.081 474.284
622 0 50.0631 11.5055 576 106.564 285.34 469
623 0 53.0478 13.3276 707 101.573 285.28 470.645
624 0 56.0755 12.501 701 105.793 285.27 470.555
625 0 56.1403 11.4891 645 104.377 284.505 467.989
626 0 58.1887 11.6689 679 104.097 285.415 468.093
627 0 58.2252 11.4899 669 103.966 284.572 467.045
628 0 64.0754 13.3905 858 98.9674 285.126 466.929
629 0 63.0913 12.4898 788 102.231 284.797 461.968
630 0 65.0797 11.9085 775 104.388 284.853 461.566
631 0 68.079 12.5002 851 102.629 285.112 462.624
632 0 71.2777 10.7327 765 104.387 284.524 454.465
633 0 74.1096 10.8758 806 99.3176 284.629 463.035
634 0 76.1349 12.7274 969 101.395 285.389 465.343
635 0 78.0579 11.3249 884 103.415 285.02 466.645
636 0 81.0915 11.0739 898 104.577 285.007 463.878
637 0 85.1128 12.0076 1022 102.999 283.799 462.34
638 0 89.093 12.7507 1136 102.315 284.503 457.67
639 0 92.1054 12.54 1155 102.286 283.997 459.124
640 0 94.1347 12.7902 1204 103.041 284.503 457.046
641 0 98.3202 12.6525 1244 103.447 284.372 453.345
642 0 102.132 13.1986 1348 103.041 284.912 451.332
643 0 104.31 12.923 1348 102.553 284.66 450.977
644 1 59.0816 11.7634 695 101.353 284.804 473.46
645 0 59.1461 11.2433 665 95.0496 285.047 473.11
646 0 60.0282 10.645 639 99.6901 284.51 473.7
647 0 64.069 10.0204 642 93.2866 285.062 473.755
648 0 66.0525 12.8837 851 90.0388 285.042 467.724
649 0 68.0774 11.8248 805 91.8298 284.57 467.752
650 0 72.0505 12.1998 879 91.1422 285.339 467.324
651 0 72.0948 11.7068 844 93.8116 285.062 468.237
652 0 75.2623 12.9148 972 92.3755 285.481 465.653
653 0 78.13 10.8153 845 95.5527 285.114 468.127
654 0 80.1203 11.0334 884 96.2738 284.769 464.438
655 0 84.0496 13.0875 1100 104.078 284.458 460.477
656 0 86.1018 11.5445 994 109.058 284.476 461.084
657 0 89.0668 12.1931 1086 108.73 284.621 459.45
658 0 90.1491 12.6346 1139 107.975 283.994 456.996
659 0 94.1071 12.9108 1215 106.156 284.468 457.454
660 0 98.092 13.1917 1294 105.974 285.183 453.345
661 0 100.136 12.473 1249 107.345 285.154 451.454
662 0 101.074 11.5756 1170 110.697 285.101 450.469
663 0 105.17 12.8934 1356 108.892 284.728 448.199
664 0 111.091 11.6662 1296 108.118 285.344 450.515
665 0 113.141 13.6378 1543 106.17 285.368 444.065
666 0 119.15 11.4142 1360 109.628 285.067 444.807
667 0 121.184 13.4919 1635 107.937 284.672 438.92
668 0 126.248 13.4339 1696 107.429 284.812 440.32
669 0 132.137 13.5692 1793 107.188 285.163 438.316
670 0 135.097 13.1831 1781 109.798 285.482 432.439
671 0 139.152 11.8144 1644 112.477 285.576 431.028
672 0 145.173 13.632 1979 109.391 285.042 427.882
673 0 150.23 13.6258 2047 109.581 285.566 427.283
674 0 154.138 14.0783 2170 109.151 285.205 420.564
675 0 159.197 13.1158 2088 110.592 284.899 420.682
676 0 165.33 13.6091 2250 109.712 285.618 416.82
677 0 169.296 13.627 2307 111.008 285.565 411.073
678 0 175.407 12.9983 2280 112.579 285.127 408.76
679 1 83.0494 12.3541 1026 106.783 286.111 453.687
680 0 88.2216 10.9497 966 111.403 286.756 453.255
681 0 91.1201 11.5781 1055 108.693 286.957 455.467
682 0 96.0344 11.5063 1105 109.656 286.684 452.615
683 0 99.156 12.5761 1247 110.52 286.092 450.063
684 0 101.074 12.2782 1241 112.171 286.234 447.86
685 0 103.2 10.5135 1085 114.59 286.702 446.285
686 0 109.159 12.4039 1354 109.117 285.869 443.041
687 1 48.0957 10.0841 485 102.138 286.992 473.641
688 0 49.0353 11.0737 543 104.529 287.041 472.337
689 0 47.0625 10.0505 473 100.015 286.053 467.459
690 0 47.051 9.09652 428 101.6 286.287 467.547
691 0 50.0599 10.2877 515 100.109 286.4 464.903
692 0 53.0713 10.4765 556 99.7896 285.867 465.085
693 0 55.0781 11.0752 610 98.7098 285.952 465.111
694 0 57.078 10.144 579 103.275 285.572 463.057
695 0 59.0831 11.1707 660 101.915 284.862 463.411
696 0 60.1162 11.3281 681 101.386 285.201 459.937
697 0 63.0391 11.4691 723 102.415 285.174 460.746
698 0 68.1296 12.7551 869 101.336 286.275 467.075
699 0 70.0746 11.8302 829 103.849 286.955 467.71
700 0 69.0672 11.0762 765 107.541 287.565 464.157
701 0 72.1815 11.9283 861 105.761 287.319 464.289
702 0 75.0437 12.4994 938 104.201 286.773 463.259
703 0 78.0968 13.9442 1089 102.671 286.44 459.956
704 0 81.1368 12.4111 1007 106.491 287.22 458.952
705 0 84.1174 12.221 1028 107.236 287.191 459.413
706 0 86.0837 13.1151 1129 104.823 287.004 454.804
707 1 49.045 10.3374 507 105.803 287.609 476.976
708 0 50.0385 10.1722 509 104.835 286.796 475.809
709 0 52.0686 11.2544 586 99.128 287.155 473.998
710 0 51.0259 11.0924 566 101.283 286.774 473.682
711 0 56.1665 13.2285 743 95.0929 286.41 472.754
712 0 54.1562 12.3901 671 100.325 285.483 473.715
713 0 55.093 12.1794 671 102.262 286.212 471.07
714 0 58.082 13.3432 775 99.2529 285.782 472.135
715 0 60.0799 12.0673 725 100.945 286.127 473.057
716 0 60.0221 12.1455 729 103.134 286.562 470.93
717 0 61.057 12.6112 770 102.555 287.043 470.023
718 0 62.0944 12.4005 770 103.579 287.488 470.594
719 0 63.0626 11.5441 728 105.078 286.756 469.198
720 0 64.1134 12.01 770 104.769 286.304 467.547
721 0 68.089 12.3221 839 102.924 287.341 468.077
722 0 71.0642 13.0586 928 101.911 287.188 466.655
723 0 74.0541 13.1661 975 101.848 287.247 465.075
724 0 76.0677 15.0129 1142 98.296 286.792 462.751
725 0 80.0753 13.5497 1085 101.829 287.041 459.139
726 0 81.1291 14.6557 1189 100.652 286.69 456.405
727 0 85.1701 14.1247 1203 101.29 286.032 456.213
728 0 89.1193 15.1258 1348 98.5037 285.504 455.717
729 0 91.0998 14.6872 1338 100.984 286.892 454.401
730 0 93.141 14.827 1381 100.785 286.993 454.095
731 0 95.1331 14.4745 1377 101.249 286.502 448.257
732 0 97.0769 13.8447 1344 102.747 286.48 446.635
733 0 100.077 14.7187 1473 100.465 286.504 447.439
734 0 104.163 14.2852 1488 101.471 286.724 442.943
735 1 55.0507 10.2996 567 104.21 286.561 466.753
736 0 60.1163 11.9934 721 100.051 287.018 466.72
737 0 58.0891 12.3087 715 99.5133 286.645 463.299
738 0 62.1227 12.1695 756 99.709 286.438 461.93
739 0 64.0479 10.8356 694 102.48 286.523 461.45
740 0 66.0974 12.1033 800 99.875 286.44 461.87
741 0 69.1196 11.878 821 101.638 286.608 457.05
742 0 73.0628 12.0855 883 103.364 285.735 465.498
743 0 77.1534 12.8057 988 103.288 286.069 463.157
744 0 79.089 13.4406 1063 100.396 285.254 465.325
745 0 83.0406 13.1743 1094 101.882 285.32 462.494
746 0 84.0725 12.9412 1088 103.6 284.917 458.561
747 0 89.1569 13.2014 1177 102.475 285.349 457.5
748 0 88.1835 12.9956 1146 104.393 286.042 455.895
749 0 96.2018 12.7752 1229 103.814 285.235 453.683
750 1 49.0897 9.85949 484 104.056 285.169 475.475
751 0 51.2001 10.9765 562 101.851 285.934 473.018
752 0 54.0377 11.529 623 93.565 286.307 477.026
753 0 53.056 10.1025 536 95.0112 286.36 476.681
754 0 57.1611 12.1411 694 91.2262 286.451 473.693
755 0 59.0494 11.3464 670 92.5866 285.915 472.702
756 0 61.0315 11.2729 688 90.843 285.906 473.827
757 0 63.1248 10.5505 666 92.0886 285.958 473.426
758 0 65.0712 10.6191 691 92.4342 286.214 471.538
759 0 69.0681 11.8868 821 89.3642 285.858 469.334
760 0 71.0719 10.0321 713 91.3829 286.027 470.268
761 0 76.0881 12.6432 962 87.9761 286.016 462.561
762 0 77.0901 9.97534 769 91.554 286.129 467.17
763 0 81.1375 12.0043 974 88.8665 285.735 463.293
764 0 80.1324 11.1441 893 90.3774 285.637 463.11
765 0 85.1664 11.2016 954 89.3208 285.196 460.88
766 0 89.0907 10.6408 948 90.7184 284.138 458.422
767 0 93.1717 12.0101 1119 87.5675 285.457 458.913
768 0 97.1346 11.4583 1113 89.2174 285.757 456.257
769 1 53.115 11.861 630 86.5048 285.868 478.476
770 0 53.1559 11.2311 597 92.6935 285.955 476.477
771 0 54.073 11.1886 605 94.2893 285.683 476.079
772 0 53.1074 9.60318 510 96.2549 285.384 474.849
773 0 57.1076 11.7147 669 91.4424 285.365 473.822
774 0 59.1703 11.2725 667 92.2594 285.207 471.595
775 0 60.1353 11.1415 670 91.7672 285.484 473.451
776 0 63.0795 12.3654 780 90.4346 285.326 469.618
777 0 66.1356 12.1871 806 89.0881 284.722 470.656
778 0 67.1187 11.7553 789 89.3853 285.3 469.087
779 0 69.1696 11.7248 811 89.2922 285.498 466.252
780 0 73.0832 12 877 88.6659 284.684 467.095
781 0 74.0826 12.2431 907 88.3186 285.546 465.97
782 0 75.1111 12.0089 902 84.7661 284.94 462.084
783 0 79.09 10.861 859 85.7497 285.004 463.491
784 0 81.0499 11.4991 932 85.8552 285.256 461.865
785 0 84.0639 11.5626 972 87.7088 285.364 458.584
786 0 86.1699 11.547 995 87.8754 285.066 458.519
787 0 91.0859 13.0975 1193 85.4535 285.158 457.857
788 0 94.2419 11.3113 1066 88.4906 285.324 457.471
789 1 49.0759 9.96416 489 85.7464 286.417 476.928
790 0 53.0704 9.19533 488 83.4918 287.01 480.684
791 0 54.183 13.0114 705 79.8241 287.054 472.201
792 0 56.2459 12.9965 731 80.7661 287.304 472.722
793 0 57.0892 12.0163 686 75.3805 285.797 466.627
794 0 54.0533 10.6006 573 78.8953 284.887 466.984
795 0 56.09 10.6436 597 79.4673 285.709 466.767
796 0 60.0931 10.101 607 79.9753 284.895 463.909
797 0 60.0534 10.9403 657 79.8858 285.388 464.473
798 0 63.06 11.3225 714 79.4426 285.796 461.587
799 0 62.0967 9.63015 598 82.9716 285.896 460.572
800 0 67.1247 11.5308 774 81.053 285.636 459.495
801 0 66.0353 9.26777 612 86.0065 284.992 457.614
802 0 71.0442 9.28999 660 85.2606 285.871 459.379
803 0 76.1523 11.2144 854 92.2564 285.256 461.834
804 0 78.0421 10.4687 817 95.2644 285.398 463.155
805 0 87.0494 13.119 1142 88.866 285.177 456.112
806 0 87.0612 11.8767 1034 93.4652 284.389 457.991
807 0 91.0722 12.0893 1101 93.0772 285.324 458.763
808 0 91.0729 12.8908 1174 92.6934 285.264 455.484
809 0 96.196 11.7157 1127 95.2041 285.036 455.719
810 0 95.0877 10.8216 1029 97.9942 284.944 447.241
811 0 94.1341 10.8993 1026 98.2758 284.632 441.344
812 1 56.1295 12.0614 677 98.7326 284.309 471
813 0 60.1588 10.2229 615 92.7382 284.898 473.826
814 0 59.0622 9.76935 577 94.61 284.997 473.166
815 0 62.0967 12.4322 772 91.9482 285.229 469.69
816 0 65.1646 12.5068 815 92.0294 285.028 467.974
817 0 68.2111 9.73448 664 95.7334 285.548 469.863
818 0 71.0346 12.0645 857 93.2322 285.01 465.979
819 0 75.0978 13.0896 983 91.9451 285.415 465.28
820 0 76.0913 11.8936 905 94.5171 285.189 464.134
821 0 78.2067 11.9555 935 94.723 284.645 463.59
822 0 84.1302 13.2176 1112 94.098 285.453 460.628
823 0 86.1091 12.0196 1035 96.8754 284.721 458.517
824 0 91.0977 12.7446 1161 101.189 284.807 456.677
825 0 92.0909 12.0533 1110 97.4153 284.232 456.268
826 0 97.1375 11.9727 1163 97.491 285.269 455.07
827 1 50.0441 12.3291 617 98.0065 284.828 473.216
828 0 52.1074 11.0349 575 95.7391 284.739 471.195
829 0 51.0561 12.0652 616 92.9545 285.068 477.552
830 0 56.0957 10.4999 589 94.6961 284.871 477.143
831 0 55.0246 10.8679 598 95.8428 284.562 474.518
832 0 59.0401 11.941 705 93.783 284.634 471.479
833 0 61.1268 11.0753 677 93.7888 284.437 472.743
834 0 64.0791 12.4846 800 92.1212 284.444 471.382
835 0 65.029 12.1638 791 92.8369 284.305 470.427
836 0 67.0779 11.8221 793 94.4805 285.146 470.774
837 0 69.0862 11.9995 829 93.5621 284.493 468.773
838 0 72.1552 11.4891 829 96.836 284.613 465.297
839 0 76.0719 12.3699 941 95.3252 284.236 463.86
840 0 79.1715 12.2393 969 95.84 284.518 462.869
841 0 80.0992 12.4221 995 96.5427 285.416 460.916
842 0 85.0606 12.3794 1053 97.4274 285.385 458.762
843 0 90.15 13.4997 1217 95.3599 285.12 457.043
844 0 92.0998 12.8773 1186 98.4688 285.975 456.05
845 0 94.1927 12.2833 1157 100.669 285.22 454.741
846 0 100.165 13.4878 1351 99.6343 285.065 452.084
847 1 54.0996 10.0555 544 99.5552 286.254 470.564
848 0 59.0421 12.5334 740 99.6757 286.346 472.605
849 0 58.0636 11.0741 643 94.6579 287.082 475.311
850 0 59.08 10.782 637 95.8744 287.031 474.014
851 0 57.1322 10.2744 587 97.7564 286.428 473.319
852 0 63.0408 11.0087 694 96.0548 286.684 470.359
853 0 65.0431 10.9773 714 96.493 285.772 469.76
854 0 68.1136 12.347 841 94.9489 285.691 468.985
855 0 69.0666 11.8726 820 94.7573 285.979 470.24
856 0 73.1966 11.6672 854 94.6838 285.595 467.077
857 0 76.0629 12.1741 926 93.4104 285.479 465.848
858 0 79.0842 10.7354 849 96.1166 285.731 464.318
859 0 82.1275 11.5065 945 90.7016 285.714 456.198
860 0 84.0542 11.3379 953 96.8657 285.099 454.501
861 0 89.0901 11.7858 1050 101.934 285.605 460.466
862 0 92.1783 13.1918 1216 100.187 284.525 456.388
863 0 96.0521 12.9201 1241 101.961 285.083 454.282
864 0 99.0655 11.8104 1170 103.66 284.943 453.127
865 1 53.0727 10.5893 562 96.1922 284.776 477.114
866 0 56.0864 11.0544 620 92.9597 285.155 475.598
867 0 55.0334 11.2114 617 93.0616 285.22 474.034
868 0 59.1098 12.3499 730 94.1014 284.571 472.911
869 0 61.0995 12.3405 754 94.2348 285.281 472.204
870 0 63.0442 12.2137 770 94.7494 285.108 470.96
871 0 66.1283 13.2167 874 91.9245 284.81 471.694
872 0 67.0869 12.1186 813 95.3173 284.375 468.268
873 0 71.1338 13.7487 978 92.5614 284.883 468.765
874 0 73.0963 11.9568 874 96.778 284.276 466.963
875 0 75.133 13.5493 1018 93.8841 284.127 464.858
876 0 78.0704 12.7321 994 95.7686 284.986 463.939
877 0 79.2228 12.6605 1003 96.2483 284.637 460.625
878 0 84.1144 11.6746 982 104.415 284.645 459.664
879 0 87.1026 12.2614 1068 103.625 284.898 459.123
880 0 87.0674 12.2778 1069 105.797 285.222 455.78
881 0 90.1489 11.4588 1033 107.164 285.323 455.016
882 0 95.0903 11.8203 1124 103.868 284.298 455.07
883 0 98.2887 13.2874 1306 101.88 285.299 452.862
884 1 55.0372 10.8472 597 99.7856 284.879 474.754
885 0 58.1483 11.9178 693 96.5079 284.62 473.352
886 0 57.0415 10.7115 611 99.3993 284.178 472.079
887 0 60.0389 12.1754 731 97.8509 284.91 472.109
888 0 62.0692 12.76 792 95.3889 284.446 469.98
889 0 64.074 12.8445 823 95.7898 284.633 470.841
890 0 67.1471 13.0311 875 94.3234 284.657 469.657
891 0 67.056 13.6006 912 94.989 284.856 468.582
892 0 69.0689 13.4214 927 95.808 284.605 467.591
893 0 71.0944 11.8856 845 100.196 284.591 465.485
894 0 75.0434 13.0724 981 97.6147 285.339 464.159
895 0 78.1113 13.2759 1037 97.7686 285.602 462.428
896 0 80.1271 12.9544 1038 98.7091 284.872 462.431
897 0 82.1982 13.8811 1141 96.6836 285.427 462.369
898 0 87.1025 12.7321 1109 99.8133 285.084 460.316
899 0 88.114 12.2909 1083 101.472 285.447 458.141
900 0 92.2101 12.1245 1118 102.027 285.549 458.443
901 0 93.0525 12.1974 1135 103.843 285.572 454.172
902 0 97.139 12.9299 1256 102.396 285.865 455.928
903 0 100.141 11.7035 1172 103.613 285.38 452.828
904 0 103.313 12.825 1325 102.225 285.747 448.057
905 0 108.26 11.8511 1283 103.67 285.217 450.728
906 0 108.099 13.0066 1406 101.808 285.28 448.935
907 0 110.086 10.0194 1103 104.009 285.049 448.566
908 0 116.205 11.9186 1385 100.877 285.489 444.921
909 0 117.167 11.1721 1309 101.873 285.749 446.726
910 0 122.162 10.1668 1242 102.463 285.08 446.268
911 0 128.127 12.4173 1591 99.1477 285.787 438.779
912 0 131.209 9.9231 1302 103.005 286.027 438.763
913 0 131.174 10.9016 1430 100.128 284.463 438.92
914 0 141.391 10.3613 1465 100.879 286.141 437.263
915 0 148.384 12.0296 1785 98.0319 285.77 429.72
916 0 155.282 12.5707 1952 95.7531 285.593 428.659
917 0 158.17 10.5898 1675 99.1534 285.347 425.102
918 0 165.378 10.7935 1785 99.2325 285.945 423.166
919 0 165.254 12.1208 2003 94.5042 285.64 428.021
920 1 94.2032 11.8149 1113 92.1671 285.858 454.975
921 0 97.2613 11.9472 1162 92.9527 285.546 456.135
922 1 52.1188 11.5505 602 96.7774 285.334 476.078
923 0 54.2344 12.8701 698 95.1948 284.983 469.616
924 0 57.1127 13.5171 772 94.3847 285.817 472.505
925 0 59.0809 12.4575 736 95.9837 285.89 472.887
926 0 58.06 11.1953 650 100.518 285.803 471.442
927 0 61.128 13.4145 820 95.8415 285.294 470.017
928 0 63.0778 12.7937 807 95.8451 285.717 469.963
929 0 66.1159 13.5973 899 93.5918 285.809 467.574
930 0 65.1418 12.3884 807 97.062 285.493 467.001
931 0 68.2605 11.9249 814 97.4079 285.311 466.908
932 0 72.2205 13.1542 950 94.8095 286.218 463.979
933 0 74.055 13.1659 975 95.5128 285.434 462.465
934 0 77.2767 13.5617 1048 94.1288 286.015 461.594
935 0 78.1863 13.5446 1059 94.6695 286.358 460.586
936 0 80.2839 11.9825 962 95.6175 285.527 459.611
937 0 82.1366 13.7454 1129 92.496 285.938 458.353
938 0 85.1658 13.5148 1151 91.8984 285.81 455.53
939 0 90.1138 11.4744 1034 94.1035 286.229 458.803
940 0 92.1612 12.5866 1160 93.906 285.978 453.373
941 0 95.2962 12.8861 1228 93.9593 285.164 452.045
942 0 97.2172 12.9092 1255 92.8064 286.583 451.327
943 0 101.161 12.4159 1256 92.7468 286.206 450.798
944 0 106.231 12.7175 1351 92.2132 286.072 445.236
945 0 110.403 12.7533 1408 91.7131 285.479 447.442
946 1 63.1687 11.683 738 93.4363 285.883 468.81
947 0 65.0679 12.1258 789 83.7528 285.681 464.106
948 0 65.0477 12.9905 845 81.9278 285.787 462.954
949 0 69.0978 12.0264 831 82.7328 285.418 461.694
950 0 71.0499 11.2034 796 84.201 285.639 463.687
951 0 73.1334 11.5132 842 86.9667 285.165 462.02
952 0 75.0945 13.2633 996 86.9267 286.029 455.068
953 0 82.2476 12.6204 1038 86.8025 285.661 457.379
954 0 81.1848 12.5393 1018 88.0167 285.522 456.75
955 0 87.196 13.5786 1184 88.5355 285.585 451.111
956 0 83.1129 12.2484 1018 92.5285 285.137 446.71
957 0 92.0798 14.5091 1336 88.5374 285.336 447.144
958 0 95.255 13.1332 1251 94.2198 285.277 449.345
959 0 100.277 15.5968 1564 89.8127 285.797 447.31
960 0 103.163 14.5982 1506 92.6766 285.819 444.81
961 0 107.394 13.7158 1473 94.9552 285.222 444.456
962 0 110.154 13.5901 1497 96.2826 286.232 439.861
963 0 116.171 13.8503 1609 96.2163 285.903 438.955
964 0 121.264 13.1037 1589 97.2083 286.08 440.164
965 0 126.238 15.2014 1919 93.1631 285.332 433.039
966 0 128.271 13.3623 1714 96.4405 285.567 435.278
967 0 136.216 14.4109 1963 93.326 286.021 432.707
968 0 141.108 14.7121 2076 91.5063 285.368 432.514
969 1 75.0377 13.2733 996 92.2811 285.974 463.456
970 0 76.1118 12.5605 956 93.6966 285.568 463.362
971 0 81.0816 13.2459 1074 92.4758 285.555 463.111
972 0 84.1213 14.0036 1178 92.5323 285.617 458.861
973 0 86.105 12.9609 1116 94.5574 285.619 456.983
974 0 88.134 12.7647 1125 95.4364 285.745 454.616
975 0 94.1313 14.0761 1325 92.5608 285.072 453.875
976 0 97.1987 12.4179 1207 94.9909 285.994 452.524
977 0 100.108 13.2957 1331 94.13 285.975 451.035
978 0 105.191 13.0144 1369 94.5303 285.377 448.106
979 0 108.207 13.3355 1443 94.6507 285.849 447.31
980 0 114.222 13.964 1595 94.9367 284.564 443.068
981 0 118.155 14.481 1711 95.5967 285.59 442.872
982 1 61.0806 11.1983 684 91.5804 285.383 468.251
983 0 63.0826 12.4123 783 91.4227 285.631 465.853
984 0 63.2266 12.0361 761 89.0276 285.48 461.168
985 0 67.0841 11.4632 769 89.2315 284.527 462.626
986 0 69.1298 11.8617 820 89.2427 285.965 463.689
987 0 74.151 12.8522 953 91.2718 286.126 463.552
988 0 78.1453 14.7162 1150 88.2235 285.888 462.066
989 0 80.134 13.3526 1070 91.929 286.557 460.507
990 0 81.1306 12.5477 1018 94.0864 285.959 459.806
991 0 85.2506 13.2902 1133 94.1712 284.768 454.432
992 0 88.2257 12.5814 1110 95.1766 285.42 455.583
993 0 92.1799 13.734 1266 93.5569 285.156 452.946
994 0 94.469 13.1895 1246 94.8804 285.254 450.784
995 0 99.0908 12.4936 1238 95.0105 285.412 451.414
996 0 102.104 13.3393 1362 93.9956 285.543 449.119
997 0 104.185 12.689 1322 94.0492 285.572 451.945
998 0 109.309 13.6311 1490 92.557 285.387 446.35
999 0 109.309 13.7042 1498 138.569 285.38 446.292
1000 1 59.1583 9.88872 585 89.7316 286.18 470.15
1001 0 64.167 11.3921 731 85.8085 285.815 469.837
1002 0 65.0303 11.4101 742 86.3383 286.027 468.993
1003 0 68.0336 10.6859 727 86.5337 285.398 468.355
1004 0 72.0645 10.9069 786 87.7824 285.874 465.617
1005 0 74.0211 11.8885 880 87.9102 285.59 461.908
1006 0 75.0801 10.935 821 91.1681 285.758 461.011
1007 0 79.1283 11.2096 887 91.0552 285.941 461.958
1008 0 84.2615 12.9241 1089 91.9605 285.466 457.028
1009 0 86.1663 13.7061 1181 93.8417 286.213 456.408
1010 0 88.3205 12.2169 1079 98.4198 286.121 453.38
1011 0 92.1475 12.8164 1181 97.6503 286.418 452.528
1012 0 96.1906 12.8911 1240 98.2613 286.169 450.177
1013 0 98.2542 10.9715 1078 98.2328 286.161 449.578
1014 0 104.101 11.8155 1230 97.2463 285.877 446.608
1015 0 106.166 12.0472 1279 95.1204 285.889 446.833
1016 0 108.091 10.8982 1178 99.2054 286.353 443.881
1017 0 112.104 11.0344 1237 98.6338 286.649 442.173
1018 0 120.226 12.3767 1488 100.812 287.021 437.404
1019 1 67.0385 10.0539 674 94.6884 286.736 464.911
1020 0 68.1499 11.0052 750 94.272 286.759 465.24
1021 0 68.1641 11.0469 753 123.145 286.752 465.167
1022 0 72.0855 10.3904 749 95.7276 286.81 465.332
1023 0 74.0681 9.74779 722 97.4654 286.719 463.349
1024 0 80.1536 11.6401 933 94.8982 286.109 458.944
1025 0 81.1903 11.2206 911 95.9704 286.434 459.575
1026 0 84.1458 10.1253 852 98.1291 286.459 459.4
1027 0 88.0716 12.1265 1068 95.2556 286.096 456.617
1028 0 92.2362 12.9342 1193 95.1324 286.701 451.525
1029 0 95.1087 13.1534 1251 96.1455 286.779 450.428
1030 0 98.115 12.7911 1255 96.0853 286.908 452.17
1031 0 106.14 12.4835 1325 102.956 286.787 447.686
1032 0 114.092 10.2198 1166 105.744 286.007 446.89
1033 0 111.117 11.7264 1303 103.315 287.015 439.862
1034 0 118.199 14.078 1664 100.937 286.254 438.921
1035 1 65.1775 11.4303 745 98.5074 287.146 466.769
1036 0 69.1618 12.1599 841 96.0059 287.886 464.926
1037 0 70.2773 12.9345 909 91.4972 287.519 465.319
1038 0 71.1674 12.1966 868 93.9078 287.229 462.949
1039 0 73.1609 10.4154 762 94.7165 286.815 464.27
1040 0 76.1637 10.5693 805 95.2981 286.952 462.78
1041 0 80.0974 12.4349 996 92.7942 286.733 459.365
1042 0 82.1173 11.922 979 93.6016 286.447 456.805
1043 0 84.1574 11.229 945 95.4148 286.562 457.74
1044 0 87.099 12.836 1118 92.636 286.839 456.41
1045 0 88.0642 10.8557 956 98.2416 287.013 452.927
1046 0 92.1622 12.4346 1146 95.7923 287.264 451.348
1047 0 97.3217 12.1453 1182 97.9695 286.813 448.311
1048 0 99.3167 11.8308 1175 99.6213 286.098 448.184
1049 0 105.241 13.93 1466 96.6842 285.939 446.02
1050 0 106.296 12.437 1322 101.83 285.675 442.502
1051 0 108.25 11.9815 1297 107.164 285.636 442.366
1052 0 112.206 13.3148 1494 103.318 285.138 438.524
1053 0 117.25 11.9062 1396 106.181 285.604 436.9
1054 0 119.234 12.5719 1499 106.107 286.244 438.52
1055 0 122.2 13.7316 1678 103.92 285.927 437.347
1056 1 70.1169 10.9674 769 105.391 286.746 461.178
1057 0 71.066 11.7496 835 103.577 286.825 459.14
1058 0 72.2308 11.4217 825 106.286 285.967 453.19
1059 0 73.0366 11.2546 822 106.622 285.476 455.054
1060 0 77.2351 12.5202 967 104.769 286.672 455.597
1061 0 80.0846 12.2745 983 102.354 287.139 457.177
1062 0 86.1206 11.8322 1019 101.016 286.391 457.53
1063 0 87.0962 13.1349 1144 99.6888 286.013 454.096
1064 0 90.0563 11.7371 1057 103.21 286.505 453.545
1065 0 94.1472 12.8097 1206 100.627 287.009 454.165
1066 0 97.1927 13.0154 1265 101.876 286.587 452.407
1067 0 98.1614 12.1127 1189 103.597 286.719 451.738
1068 0 103.157 13.4649 1389 99.9438 286.31 448.614
1069 0 108.261 11.7032 1267 101.989 286.99 448.482
1070 0 107.099 10.8591 1163 105.183 286.86 445.48
1071 0 112.167 13.364 1499 101.323 286.333 440.37
1072 0 116.112 11.6353 1351 101.651 286.597 444.358
1073 1 64.1587 11.4248 733 99.4802 286.868 465.652
1074 0 66.06 10.657 704 102.528 285.967 466.653
1075 0 67.1305 11.0829 744 96.7675 285.789 458.844
1076 0 67.0435 12.3204 826 85.9709 286.378 456.079
1077 0 71.0917 10.8311 770 88.0701 286.043 454.791
1078 0 73.0494 10.6503 778 88.6324 287.485 453.652
1079 0 74.1372 10.4536 775 89.5174 286.161 451.747
1080 0 75.0492 10.0734 756 91.2936 286.275 450.526
1081 0 77.1429 10.7981 833 90.8175 286.609 446.629
1082 0 80.1707 11.7749 944 89.7278 286.298 449.918
1083 0 84.1856 10.9045 918 95.9248 286.226 456.656
1084 0 88.1339 10.6429 938 96.6386 286.756 454.483
1085 0 93.1775 12.3528 1151 93.8123 286.681 452.096
1086 0 97.193 12.1305 1179 94.134 287.654 450.878
1087 0 100.119 12.4053 1242 93.2174 286.96 450.543
1088 0 101.182 10.3774 1050 96.9171 288.013 449.352
1089 0 104.092 13.0654 1360 94.7698 287.521 442.075
1090 0 109.192 12.6933 1386 94.4488 287.379 440.685
1091 0 112.284 11.0524 1241 98.2337 286.802 440.462
1092 0 121.202 13.6879 1659 95.2489 287.495 435.331
1093 1 63.132 10.3117 651 92.831 287.066 465.135
1094 0 64.0432 11.6015 743 89.4253 286.991 463.771
1095 0 69.0293 13.2842 917 86.1898 287.702 463.374
1096 0 71.0673 12.6922 902 85.8104 287.182 459.756
1097 0 73.0715 13.3294 974 84.96 287.149 458.212
1098 0 75.101 12.0371 904 86.6615 287.56 458.99
1099 0 77.2147 11.9537 923 86.7649 287.021 455.124
1100 0 81.1366 12.8179 1040 84.7452 287.28 454.327
1101 0 86.1089 13.5062 1163 83.4411 287.276 450.395
1102 0 90.1643 13.2536 1195 83.1322 287.259 452.256
1103 0 92.3243 12.5861 1162 83.7453 287.216 451.395
1104 0 93.1146 12.9733 1208 81.1076 286.815 451.254
1105 0 97.1913 12.6657 1231 80.9838 287.047 451.607
1106 0 98.1521 10.1271 994 84.8451 286.71 447.299
1107 0 102.25 10.934 1118 79.8685 287.19 442.009
1108 0 106.25 11.8212 1256 80.7532 287.225 447.131
1109 0 108.103 11.2485 1216 82.0132 287.655 445.001
1110 0 115.182 10.9479 1261 81.701 287.534 444.346
1111 0 121.087 11.8675 1437 79.8455 287.772 434.902
1112 1 67.1661 11.9703 804 77.5572 287.879 461.731
1113 0 67.0561 10.5881 710 78.6225 286.889 460.183
1114 0 70.1114 9.6418 676 76.5932 287.586 456.583
1115 0 73.1951 10.6428 779 75.6277 287.911 458.228
1116 0 75.2641 9.60618 723 77.1494 287.351 458.147
1117 0 78.0794 12.4104 969 74.8762 287.376 456.126
1118 0 80.101 10.2995 825 78.7806 287.987 456.979
1119 0 83.1414 9.59811 798 78.3058 287.356 459.95
1120 0 86.1021 10.6269 915 78.977 287.635 453.114
1121 0 91.1927 12.808 1168 76.7329 287.66 448.687
1122 0 92.1981 10.8028 996 82.1918 288.063 450.039
1123 0 98.1406 13.8679 1361 84.8376 287.456 444.631
1124 0 103.232 13.6488 1409 85.1363 287.072 442.184
1125 0 105.204 13.7067 1442 84.2219 287.112 437.351
1126 0 108.589 11.3824 1236 88.5696 286.905 434.765
1127 1 58.1832 11.0857 645 85.8605 286.862 461.598
1128 0 60.1191 11.1944 673 83.5067 286.892 467.339
1129 0 63.0554 12.2115 770 76.9234 287.245 465.935
1130 0 64.1159 12.3214 790 79.3165 287.761 462.475
1131 0 66.1104 12.1161 801 79.6255 287.705 463.518
1132 0 66.1256 10.9791 726 81.4008 287.719 464.774
1133 0 72.15 13.3195 961 78.2497 287.735 461.548
1134 0 71.1834 13.4582 958 79.9802 287.16 458.62
1135 0 75.1018 13.6215 1023 79.3939 287.421 460.733
1136 0 77.09 13.5945 1048 81.0792 287.474 458.236
1137 0 79.1747 13.0597 1034 82.9449 287.359 458.145
1138 0 82.1134 12.6898 1042 84.0422 287.633 456.779
1139 0 86.1693 12.8236 1105 84.4416 287.416 453.881
1140 0 90.1184 14.1591 1276 83.5572 287.887 452.239
1141 0 91.3534 13.5299 1236 86.4118 287.261 449.518
1142 0 95.1569 13.1572 1252 90.6302 288.195 450.841
1143 0 95.1409 12.203 1161 89.1542 287.818 447.793
1144 1 54.0356 12.3437 667 88.3403 287.147 468.388
1145 0 56.1898 12.6357 710 88.9775 286.462 464.697
1146 0 59.1681 12.5912 745 89.4698 286.827 462.144
1147 0 60.2559 12.0818 728 90.6813 287.496 461.809
1148 0 62.2106 13.8883 864 87.9606 287.701 462.243
1149 0 64.0648 12.6747 812 90.8091 287.418 463.824
1150 0 64.1749 10.97 704 101.795 287.298 459.936
1151 0 69.0666 12.7413 880 97.2455 287.889 458.938
1152 0 72.1518 13.0142 939 96.0895 288.091 460.75
1153 0 73.091 12.3271 901 97.9567 287.559 458.056
1154 0 75.0838 14.3573 1078 94.6141 288.935 458.017
1155 0 78.0579 12.0424 940 98.8734 287.611 457.512
1156 0 79.0512 13.3964 1059 97.3806 288.344 455.917
1157 0 80.0896 10.8628 870 101.202 288.731 455.243
1158 0 80.1764 12.8841 1033 99.2672 288.399 453.503
1159 0 85.1354 12.1219 1032 101.705 288.062 448.383
1160 0 87.0988 13.1001 1141 100.671 287.512 447.422
1161 0 94.1487 13.4256 1264 99.9256 288.567 446.111
1162 0 96.1361 13.2728 1276 100.13 287.728 443.658
1163 0 101.165 13.0677 1322 100.146 288.127 442.623
1164 0 100.173 12.718 1274 101.542 288.419 443.009
1165 1 57.0751 12.0193 686 99.4752 287.899 462.138
1166 0 61.1647 12.7852 782 97.3376 288.384 462.517
1167 0 64.0878 13.0446 836 96.6555 288.788 462.575
1168 0 62.1169 13.1687 818 97.2751 288.671 461.522
1169 0 64.0932 12.0762 774 101.557 288.954 458.882
1170 0 67.0784 12.9997 872 98.8257 288.373 458.771
1171 0 67.0548 11.8858 797 101.783 288.383 460.862
1172 0 71.0586 12.9048 917 98.7699 287.859 461.116
1173 0 74.0833 12.0135 890 100.366 288.231 459.975
1174 0 77.1366 12.7047 980 98.7898 288.207 458.253
1175 0 80.0743 13.1378 1052 99.2405 289.08 453.847
1176 0 82.0893 12.3159 1011 100.368 288.262 453.825
1177 0 83.0941 12.1429 1009 100.695 288.191 453.718
1178 0 89.1532 12.0242 1072 100.136 288.504 452.265
1179 0 92.2063 13.459 1241 97.6898 287.977 447.545
1180 0 92.1254 12.3093 1134 100.407 287.916 447.824
1181 0 95.1022 12.8283 1220 98.8869 288.108 444.609
1182 0 100.25 11.3317 1136 102.081 288.07 442.326
1183 0 101.196 12.6388 1279 99.8772 287.321 440.116
1184 0 104.076 12.8272 1335 101.202 287.61 436.037
1185 0 105.112 12.0348 1265 102.968 288.032 437.26
1186 0 107.085 11.3274 1213 104.116 287.195 438.776
1187 0 112.218 12.4312 1395 102.798 287.928 433.89
1188 0 118.183 13.3437 1577 100.757 287.906 430.256
1189 1 63.0938 9.54134 602 99.505 287.369 457.94
1190 0 69.0811 11.7688 813 95.8143 286.956 458.75
1191 0 74.0762 12.0012 889 96.775 287.11 458.513
1192 0 75.0428 11.8999 893 96.1769 287.897 461.314
1193 0 73.0427 12.0341 879 97.9738 287.124 457.695
1194 0 77.0899 11.2596 868 100.052 287.124 455.376
1195 0 80.044 11.6186 930 99.5344 286.177 452.854
1196 0 86.0898 13.2536 1141 95.4978 286.97 451.302
1197 0 86.1682 13.6013 1172 96.0111 287.108 450.811
1198 0 88.0768 12.7729 1125 97.7956 287.001 450.028
1199 0 91.1021 13.205 1203 97.4638 287.383 444.174
1200 0 94.0838 12.8184 1206 97.3823 286.915 448.277
1201 0 96.121 12.7236 1223 98.8667 287.352 441.997
1202 0 98.1068 12.3131 1208 99.6656 287.257 443.505
1203 0 103.1 12.4927 1288 99.7593 287.878 439.95
1204 0 102.22 13.3046 1360 97.5221 287.218 435.63
1205 0 105.105 12.8538 1351 98.2058 286.838 435.146
1206 0 105.063 12.6115 1325 98.2951 287.514 431.208
1207 0 111.094 14.9693 1663 92.0469 287.906 431.634
1208 0 109.215 12.3609 1350 99.0548 288.284 426.301
1209 0 113.086 13.1758 1490 96.157 288.323 419.962
1210 0 117.145 13.2912 1557 95.5055 288.494 424.168
1211 0 123.093 13.3801 1647 94.6582 287.971 423.166
1212 0 129.358 12.9486 1675 95.1254 287.426 416.644
1213 0 134.194 12.549 1684 95.7506 287.856 417.095
1214 1 74.0423 10.1023 748 91.9318 288.783 445.599
1215 0 78.1884 11.4595 896 87.1027 288.097 448.638
1216 0 82.0404 11.5675 949 81.687 287.697 448.726
1217 0 86.1343 9.60128 827 85.1741 287.923 444.761
1218 0 92.1565 9.97217 919 89.2949 288.358 452.548
1219 0 96.197 11.7259 1128 87.9007 288.078 448.058
1220 0 96.1342 10.891 1047 91.1012 288.639 446.926
1221 0 101.127 11.1444 1127 91.2742 287.864 446.418
1222 0 105.168 12.7225 1338 89.3087 288.568 445.156
1223 0 108.103 12.3586 1336 91.0569 288.143 440.675
1224 0 110.064 12.411 1366 92.1603 288.474 442.68
1225 0 113.155 13.371 1513 90.8857 288.536 441.765
1226 0 117.044 13.5419 1585 92.0158 286.946 438.883
1227 0 119.211 12.6833 1512 94.459 287.52 438.64
1228 0 122.17 14.0297 1714 95.2235 287.313 436.246
1229 0 127.097 14.1939 1804 94.7483 287.242 433.094
1230 0 130.164 14.328 1865 95.6976 288.048 431.116
1231 0 136.213 13.589 1851 95.7061 288.273 429.538
1232 0 139.115 13.9596 1942 96.1874 287.871 425.869
1233 0 142.173 12.6958 1805 96.4404 287.224 423.412
1234 0 142.173 10.7545 1529 100.492 287.592 413.804
1235 1 85.1047 10.0112 852 85.946 287.927 449.297
1236 0 87.1493 11.2336 979 85.8447 288.044 448.979
1237 0 90.0544 10.8268 975 90.2862 289.082 451.303
1238 0 90.1166 10.5863 954 91.7809 289.332 448.776
1239 0 95.1081 11.6709 1110 90.3955 289.829 452.184
1240 0 96.0943 9.92775 954 92.8732 289.227 442.36
1241 0 99.0817 9.86055 977 95.1771 288.294 441.238
1242 0 105.205 11.7009 1231 100.176 287.972 445.596
1243 0 110.158 11.8557 1306 98.6424 287.942 444.85
1244 0 112.1 12.8635 1442 95.8578 287.568 445.329
1245 0 113.164 12.0444 1363 95.3507 288.296 440.591
1246 0 115.16 11.5926 1335 100.344 288.339 441.654
1247 0 121.12 11.8312 1433 97.8618 288.728 440.844
1248 0 124.151 12.4203 1542 97.7134 288.268 436.588
1249 0 130.244 11.2788 1469 98.4377 287.783 435.207
1250 1 71.2815 10.7742 768 93.2135 287.958 462.487
1251 0 74.1098 12.387 918 92.6863 287.606 460.676
1252 0 74.1033 11.8213 876 99.5434 287.975 459.505
1253 0 78.099 13.0347 1018 96.9597 287.914 459.362
1254 0 81.2341 13.1718 1070 96.6477 287.681 458.342
1255 0 83.1223 11.4289 950 100.728 288.081 456.449
1256 0 83.1359 12.6419 1051 98.5271 287.915 456.584
1257 0 85.1719 11.7997 1005 101.29 288.306 455.539
1258 0 86.1251 12.238 1054 101.425 287.924 451.405
1259 0 90.1075 11.8969 1072 100.591 288.169 452.552
1260 0 92.09 12.8135 1180 99.4881 288.276 451.886
1261 0 93.0867 11.9244 1110 102.541 288.921 447.963
1262 0 92.1308 11.0278 1016 105.648 289.242 446.284
1263 0 99.0912 13.4422 1332 99.8701 288.758 446.827
1264 0 100.282 12.8239 1286 101.397 289.033 444.383
1265 0 104.091 12.5851 1310 102.418 288.614 443.327
1266 0 106.094 11.7538 1247 103.969 288.226 442.895
1267 0 108.138 12.2436 1324 103.298 287.795 441.572
1268 0 112.219 13.5717 1523 101.25 287.917 438.972
1269 0 116.19 13.5382 1573 100.083 288.751 440.776
1270 0 118.08 12.0003 1417 100.405 288.387 430.463
1271 0 122.096 13.0389 1592 101.81 288.691 434.45
1272 0 127.22 11.995 1526 103.727 288.281 431.052
1273 0 128.435 11.5156 1479 105.015 288.834 426.014
1274 0 135.271 10.9336 1479 102.202 288.628 429.768
1275 0 141.227 13.3473 1885 96.8944 288.742 429.906
1276 0 146.29 12.1061 1771 98.5263 289.203 425.094
1277 0 151.303 12.2602 1855 99.6119 289.092 419.74
1278 1 86.0959 10.6974 921 89.4115 288.877 457.47
1279 0 87.1665 9.79734 854 97.9145 287.71 450.788
1280 0 91.1084 13.1053 1194 90.9364 288.474 453.321
1281 0 92.2198 11.3858 1050 87.539 288.472 451.211
1282 0 93.1864 10.4951 978 89.273 288.721 450.426
1283 0 94.1386 9.94278 936 91.2586 288.432 447.295
1284 0 99.1731 11.2934 1120 89.6241 289.152 446.405
1285 0 102.239 10.9254 1117 91.4163 289.982 446.741
1286 0 105.176 10.9531 1152 92.1085 289.315 444.752
1287 0 107.111 11.8942 1274 91.2111 289.367 441.767
1288 0 108.144 10.6063 1147 95.9651 289.591 439.482
1289 0 111.216 11.1045 1235 95.085 289.519 438.192
1290 0 117.38 11.5523 1356 95.767 289.403 439.134
1291 0 118.211 11.0057 1301 98.8532 289.191 435.97
1292 0 119.093 10.8403 1291 100.944 288.658 432.747
1293 0 125.377 11.5731 1451 99.1668 288.871 434.057
1294 0 128.136 12.557 1609 98.9577 288.85 428.641
1295 0 131.211 11.8206 1551 101.36 289.231 427.282
1296 0 136.199 12.5992 1716 99.1929 289.265 427.138
1297 0 138.193 11.8023 1631 100.607 289.069 427.053
1298 0 142.297 11.7782 1676 102.351 289.241 423.261
1299 0 148.282 12.3211 1827 101.539 288.993 418.215
1300 0 153.175 13.2724 2033 100.237 288.372 417.013
1301 0 155.213 12.3572 1918 104.178 288.229 409.22
1302 0 161.68 12.9824 2099 103.578 288.678 412.362
1303 1 91.3613 10.059 919 99.9706 289.118 449.225
1304 0 94.2426 11.8948 1121 99.289 288.838 443.689
1305 0 98.1402 11.1168 1091 94.2539 289.654 449.58
1306 0 100.104 12.0575 1207 93.8666 289.677 448.65
1307 0 104.082 12.5478 1306 92.9801 289.4 446.142
1308 0 106.151 12.2278 1298 93.9553 289.337 443.282
1309 0 110.173 13.4879 1486 92.5451 289.828 441.911
1310 0 112.203 13.333 1496 95.6832 289.269 438.822
1311 0 116.196 12.7457 1481 95.4706 288.707 438.734
1312 0 121.232 11.944 1448 96.7707 289.107 438.051
1313 0 124.3 13.0571 1623 95.0758 288.172 436.276
1314 0 126.221 11.1788 1411 99.5521 288.021 431.909
1315 0 132.432 11.5153 1525 100.802 288.111 427.355
1316 1 74.2128 11.0224 818 100.994 288.615 455.446
1317 0 75.1499 11.3906 856 96.4369 288.486 454.864
1318 0 78.0982 12.2794 959 96.1251 288.557 454.627
1319 0 80.1766 12.5847 1009 96.5342 288.657 451.936
1320 0 82.1794 12.0103 987 98.2148 288.32 451.77
1321 0 83.1373 12.1125 1007 100.299 288.148 452.553
1322 0 86.1389 11.8762 1023 102.439 287.708 448.26
1323 0 89.166 12.8188 1143 100.705 287.849 448.682
1324 0 90.1384 12.4253 1120 102.742 287.345 446.834
1325 0 93.1478 12.8935 1201 101.988 287.974 446.637
1326 0 89.1928 11.1668 996 104.004 287.547 444.427
1327 0 93.1577 12.3983 1155 100.914 287.847 449.02
1328 0 97.0895 11.958 1161 101.869 287.228 447.432
1329 0 98.1932 11.6098 1140 104.746 287.08 440.461
1330 0 98.2412 11.7975 1159 104.966 286.737 440.039
1331 0 102.116 12.8971 1317 102.172 287.925 438.639
1332 1 57.0264 9.9077 565 99.5646 287.255 464.078
1333 0 58.0427 9.51024 552 102.79 287.379 460.283
1334 0 60.0556 10.7067 643 101.109 287.101 463.337
1335 0 64.1572 11.316 726 99.646 286.853 464.702
1336 0 66.2049 12.8238 849 97.2167 287.132 463.472
1337 0 65.299 10.9956 718 101.767 286.187 464.313
1338 0 70.2086 13.4029 941 96.576 287.042 465.085
1339 0 70.1359 11.3494 796 101.293 285.51 462.786
1340 0 73.1187 12.1036 885 100.272 286.818 463.276
1341 0 76.2526 12.7078 969 99.0526 286.526 461.061
1342 0 77.2286 13.5183 1044 97.2232 285.81 460.464
1343 0 78.2723 13.4658 1054 97.2571 285.675 458.138
1344 0 81.2517 12.5536 1020 98.6049 285.408 459.251
1345 0 82.1563 12.5493 1031 99.711 285.823 457.736
1346 0 86.238 12.9641 1118 97.3882 285.871 457.186
1347 0 87.2919 12.968 1132 97.3728 285.996 457.893
1348 0 88.1838 12.8255 1131 98.3466 285.806 452.449
1349 0 87.1324 12.854 1120 99.4821 285.396 451.452
1350 0 90.1763 12.3758 1116 99.2661 285.294 452.378
1351 0 95.2244 12.9694 1235 96.4542 284.912 451.261
1352 0 94.1207 13.0683 1230 97.3959 285.267 446.623
1353 0 97.135 12.0451 1170 99.1726 285.84 448.088
1354 0 99.1849 12.1087 1201 98.6461 285.75 446.804
1355 0 102.172 11.7155 1197 99.6065 285.27 443.129
1356 0 104.167 11.0111 1147 100.327 285.31 446.303
1357 0 108.278 12.1078 1311 98.1968 285.249 440.334
1358 0 108.199 11.599 1255 98.8454 285.184 441.696
1359 0 114.225 11.5386 1318 98.4742 285.335 437.011
1360 0 119.212 13.7906 1644 92.9811 284.66 430.92
1361 0 119.168 12.5621 1497 95.7007 284.283 431.975
1362 1 65.023 10.058 654 92.5856 285.112 457.324
1363 0 72.2102 10.3586 748 90.9479 285.679 462.037
1364 0 75.1675 13.0775 983 92.3347 285.65 463.214
1365 0 75.1124 11.4362 859 92.8929 285.325 464.736
1366 0 75.0556 10.7654 808 94.823 285.543 465.506
1367 0 78.0454 11.5317 900 93.84 285.349 461.73
1368 0 83.1304 10.7061 890 95.1034 285.297 460.308
1369 0 82.0734 11.3191 929 95.211 284.836 458.836
1370 0 83.062 10.6065 881 97.2032 285.313 459.116
1371 0 86.0677 12.4669 1073 94.1855 284.749 455.729
1372 0 87.1188 12.2821 1070 94.5224 284.305 457.793
1373 0 92.1197 12.3101 1134 94.2072 284.364 457.888
1374 0 94.1573 13.0845 1232 93.9627 284.36 452.002
1375 0 96.0503 11.9208 1145 97.1345 284.872 450.452
1376 0 102.157 12.285 1255 96.8757 285.069 448.317
1377 0 103.109 12.8504 1325 96.3094 284.142 449.888
1378 0 102.126 11.3194 1156 99.2768 284.441 448.898
1379 0 106.138 12.8794 1367 96.6854 284.677 443.263
1380 0 116.138 10.1001 1173 99.5396 284.032 446.615
1381 0 113.057 11.6047 1312 96.9002 283.627 440.146
1382 0 115.155 10.6465 1226 96.8067 283.051 437.995
1383 0 120.272 11.3908 1370 96.4971 283.908 433.007
1384 0 120.141 11.3117 1359 97.0699 283.368 429.121
1385 0 129.187 13.4456 1737 92.8325 283.973 429.243
1386 0 131.16 11.2687 1478 96.2476 284.847 430.643
1387 1 70.0743 8.79066 616 93.5877 284.695 458.437
1388 0 78.0483 12.1591 949 87.3288 284.606 459.117
1389 0 78.1057 11.2284 877 102.787 285.414 458.976
1390 0 84.1793 12.5922 1060 93.1774 284.146 464.82
1391 0 82.1596 12.0254 988 97.4636 285.322 460.036
1392 0 88.1442 13.1829 1162 93.3046 284.683 462.289
1393 0 91.2251 13.4941 1231 94.182 283.439 455.055
1394 0 94.1143 12.9205 1216 95.1998 284.655 455.188
1395 0 96.07 12.7823 1228 95.934 284.096 453.292
1396 0 99.1185 13.5595 1344 94.2998 284.214 452.324
1397 0 101.177 12.5819 1273 96.8429 283.845 451.785
1398 0 104.172 13.161 1371 95.9365 284.43 451.379
1399 0 106.159 12.4907 1326 98.7934 283.361 447.257
1400 0 109.216 13.542 1479 96.455 283.918 447.371
1401 0 113.127 14.1876 1605 95.2523 283.373 445.879
1402 0 116.226 13.3791 1555 96.2855 283.831 442.868
1403 0 119.135 13.8667 1652 96.0012 283.702 441.321
1404 0 122.316 14.0456 1718 102.525 283.981 436.568
1405 0 126.137 13.5646 1711 102.618 284.188 436.298
1406 0 130.316 13.989 1823 102.664 283.692 435.102
1407 0 135.189 14.2689 1929 101.78 283.716 434.152
1408 0 140.268 13.4956 1893 103.458 283.943 430.305
1409 0 143.236 13.9559 1999 102.969 283.85 427.383
1410 0 149.255 13.8287 2064 102.469 284.124 423.035
1411 0 153.401 12.9269 1983 104.238 283.448 421.498
1412 0 159.32 12.6475 2015 103.558 284.057 421.029
1413 0 164.315 13.535 2224 100.821 283.856 418.425
1414 0 167.347 12.8416 2149 101.373 284.219 417.22
1415 0 174.283 12.0551 2101 101.465 283.491 417.047
1416 0 180.55 11.9413 2156 98.9666 283.683 413.549
1417 0 185.373 12.8929 2390 98.113 284.171 410.474
1418 0 189.591 12.2052 2314 100.169 283.83 406.631
1419 0 196.368 12.9909 2551 100.476 283.765 405.489
1420 0 202.468 13.2416 2681 101.294 283.399 404.58
1421 0 207.395 12.5558 2604 104.298 283.453 402.738
1422 0 213.33 13.4815 2876 103.047 283.365 399.18
1423 0 221.444 13.2494 2934 103.793 283.385 392.957
1424 0 226.497 13.6646 3095 104.076 283.976 389.689
1425 0 232.584 13.3672 3109 106.549 283.031 383.729
1426 0 241.437 13.3824 3231 105.678 282.688 385.1
1427 0 251.554 14.7603 3713 102.541 282.911 381.146
1428 0 259.684 14.0825 3657 105.728 283.539 372.324
1429 0 268.499 13.9777 3753 104.916 282.655 366.624
1430 0 276.644 13.1975 3651 108.578 283.132 360.287
1432 1 225.472 13.2833 2995 102.47 283.43 391.457
1433 0 232.24 13.5937 3157 101.759 283.056 386.702
1434 0 236.315 11.8655 2804 107.695 283.041 375.06
1435 0 246.239 13.5519 3337 104.645 282.861 378.767
1436 0 255.339 14.0128 3578 107.631 282.594 369.815
1437 1 69.1489 10.0942 698 89.6089 283.456 466.547
1438 0 70.1994 11.1967 786 90.757 284.005 465.081
1439 0 73.1236 10.913 798 91.8897 284.061 465.471
1440 0 72.0971 9.61204 693 91.6205 283.968 465.834
1441 0 74.1467 10.9108 809 91.0742 284.602 465.109
1442 0 78.1441 11.1845 874 90.7998 284.095 462.651
1443 0 80.0872 11.4625 918 90.4096 284.309 464.109
1444 0 83.1984 10.469 871 92.333 284.369 458.268
1445 0 86.1488 12.6874 1093 89.8335 284.755 456.894
1446 0 89.1359 12.8231 1143 89.4593 284.113 455.309
1447 0 92.0991 12.0088 1106 97.745 283.908 453.087
1448 0 94.1056 11.5296 1085 99.2313 283.938 452.956
1449 0 99.0808 12.9389 1282 95.688 284.933 451.824
1450 0 102.077 12.3339 1259 96.7879 283.349 449.723
1451 0 104.117 11.8713 1236 98.3592 284 446.269
1452 0 110.117 14.2394 1568 91.7054 284.591 444.352
1453 0 112.223 11.2009 1257 98.5465 284.443 448.669
1454 0 115.194 11.9017 1371 99.1335 284.01 443.22
1455 0 117.12 12.2439 1434 98.3292 284.029 442.584
1456 0 124.131 14.0819 1748 95.4045 283.696 437.129
1457 0 127.085 11.7717 1496 99.6778 284.132 435.324
1458 0 130.135 12.0337 1566 98.6296 284.335 435.81
1459 1 75.0578 11.3113 849 89.3522 285.63 464.286
1460 0 75.0928 10.2939 773 90.3208 285.301 465.349
1461 0 77.0588 12.5229 965 87.6311 284.53 462.417
1462 0 78.0738 12.0783 943 95.3489 284.662 460.529
1463 0 80.0678 12.5644 1006 93.8052 283.456 461.131
1464 0 82.1823 11.8152 971 95.0206 283.77 460.294
1465 0 85.1579 12.6236 1075 93.0037 283.237 459.133
1466 0 87.166 12.6655 1104 94.0716 283.848 458.354
1467 0 87.0607 11.2221 977 97.2508 283.754 456.82
1468 0 91.11 12.3916 1129 95.7759 283.833 453.497
1469 0 94.1421 13.9258 1311 92.8505 283.792 454.194
1470 0 95.0804 12.6314 1201 95.3247 283.626 453.489
1471 0 98.0711 13.7553 1349 95.0304 283.89 449.168
1472 0 101.214 13.7629 1393 94.7566 284.223 448.536
1473 0 101.139 11.4496 1158 99.8618 284.735 449.092
1474 0 104.112 13.2165 1376 97.944 283.948 446.769
1475 0 107.127 12.7792 1369 98.9942 284.264 442.946
1476 0 112.134 14.1705 1589 95.7451 284.731 443.165
1477 0 116.242 14.5559 1692 95.1271 283.788 440.554
1478 0 116.183 12.6611 1471 99.0326 283.415 440.961
1479 0 121.175 13.9221 1687 97.1156 284.03 439.489
1480 0 125.243 13.2463 1659 97.8258 284.049 436.467
1481 0 128.397 13.9255 1788 98.5336 283.893 432.458
1482 1 73.0571 10.3755 758 99.2586 283.846 463.682
1483 0 76.1122 10.8524 826 100.136 283.977 461.407
1484 0 78.1013 12.2021 953 98.0703 283.715 457.868
1485 0 80.1338 12.4292 996 98.3715 284.344 456.293
1486 0 83.0789 12.8432 1067 96.9775 283.35 453.928
1487 0 86.0862 12.8011 1102 92.9782 283.936 455.017
1488 0 88.068 11.2981 995 96.0442 283.313 456.066
1489 0 90.0828 11.8669 1069 95.5061 283.148 454.025
