time division length width area intensity CMx CMy
0 0 84.0742 12.2511 1030 125.704 58.8738 461.161
1 0 87.0398 12.8332 1117 125.332 59.2919 458.535
2 0 91.1193 13.6744 1246 122.357 59.1493 454.714
3 0 94.213 12.9812 1223 124.596 59.0319 453.595
4 0 98.1269 13.401 1315 120.245 58.8494 453.192
5 1 54.0484 12.5628 679 118.244 60.9234 473.057
6 0 56.0979 11.373 638 120.03 61.3401 472.597
7 0 54.1261 11.6025 628 113.623 60.0143 473.228
8 0 56.1393 11.7565 660 113.173 60.4879 473.777
9 0 57.1382 12.8285 733 108.233 59.382 473.791
10 0 59.0895 10.7464 635 112.787 59.526 470.707
11 0 62.053 12.3121 764 109.192 59.6571 469.86
12 0 65.2576 11.3397 740 108.653 61.1892 471.609
13 0 67.0954 11.5209 773 108.797 61.2044 468.988
14 0 69.201 11.1704 773 109.185 60.8396 467.386
15 0 70.0973 10.5568 740 109.546 60.9919 467.877
16 0 74.2968 11.9251 886 106.694 60.6524 464.361
17 0 76.2555 11.0025 839 107.617 60.7652 465.496
18 0 80.1977 12.0328 965 105.556 60.7067 463.489
19 0 83.381 12.269 1023 105.322 60.8651 459.096
20 0 86.5495 12.2935 1064 106.027 60.8816 456.933
21 0 87.1043 11.4575 998 108.338 60.9499 445.514
22 0 91.2859 10.7136 978 110.08 60.6759 433.81
23 0 93.2042 10.4394 973 111.8 60.369 433.322
24 0 100.2 12.3254 1235 116.857 60.7506 427.44
25 0 105.398 13.3304 1405 113.464 60.7644 426.61
26 0 109.458 12.9456 1417 112.402 60.175 427.147
27 0 112.591 12.7452 1435 113.312 61.3498 425.548
28 0 116.151 13.6374 1584 109.105 61.3611 430.241
29 1 65.1671 10.7109 698 107.782 62.5244 468.579
30 0 65.1354 12.0672 786 107.996 62.4364 466.211
31 0 68.2121 13.8978 948 107.601 61.8734 462.075
32 0 69.2663 12.5025 866 107.263 61.7009 462.614
33 0 70.2755 12.8494 903 106.109 61.9934 462.92
34 0 73.1791 12.5992 922 104.14 60.9024 461.473
35 0 75.2061 12.6585 952 105.19 61.3288 459.617
36 0 79.1869 13.8281 1095 102.398 61.0511 458.92
37 0 80.1166 14.1918 1137 102.348 60.9833 456.874
38 0 83.0483 14.4735 1202 101.998 61.5125 454.816
39 0 86.1086 14.1333 1217 102.717 61.3484 453.834
40 0 89.432 13.5522 1212 104.408 61.1947 453.82
41 0 91.1897 13.2471 1208 104.379 61.3543 450.394
42 0 94.2588 13.3144 1255 104.475 61.3753 447.48
43 0 99.4615 13.2313 1316 105.252 61.7272 448.54
44 0 100.289 12.2147 1225 108.599 61.671 444.523
45 0 104.41 13.2937 1388 105.804 61.2543 444.88
46 0 107.311 13.3909 1437 106.049 61.5644 438.855
47 0 112.359 13.5992 1528 104.383 60.9306 435.039
48 0 117.348 13.7711 1616 103.686 61.422 435.171
49 1 61.1119 11.6835 714 115.338 61.1345 459.245
50 0 64.3364 13.1341 845 111.744 61.2604 458.214
51 0 64.1876 12.2454 786 114.964 61.4631 455.76
52 0 67.2457 13.1161 882 114.126 61.7415 456.019
53 0 70.3437 13.2066 929 112.601 61.3972 457.525
54 0 71.3749 12.3293 880 114.965 60.258 456.298
55 0 74.3012 12.6647 941 111.786 60.5367 456.978
56 0 77.2482 13.8126 1067 109.668 60.2484 456.717
57 0 79.4141 13.7381 1091 109.745 61.055 454.335
58 0 83.2649 14.3518 1195 106.885 61.5983 455.426
59 0 84.2329 14.3293 1207 110.667 61.1765 449.894
60 0 86.3371 13.3083 1149 113.366 60.8285 448.782
61 0 88.4956 13.7973 1221 113.459 60.7674 447.178
62 0 91.3091 14.0074 1279 113.13 60.8491 447.38
63 0 95.3051 13.8293 1318 113.969 61.2898 446.101
64 0 97.5306 16.0975 1570 107.317 61.2446 443.213
65 0 101.28 14.7117 1490 111.352 61.3034 442.273
66 0 104.231 13.9498 1454 112.691 61.4147 440.699
67 0 107.411 13.6858 1470 115.218 61.5551 439.488
68 0 111.327 13.6445 1519 115.598 61.3278 437.683
69 0 115.343 13.993 1614 114.519 61.4095 438.228
70 0 119.167 13.1999 1573 117.408 60.8875 430.547
71 0 123.6 14.021 1733 113.672 61.1281 433.983
72 1 66.3173 12.1838 808 117.277 61.5978 464.132
73 0 66.2685 12.5852 834 116.499 61.6295 462.782
74 0 73.4784 14.7799 1086 107.779 61.825 459.728
75 0 80.4659 17.1253 1378 97.701 61.8534 453.771
76 0 84.4796 17.8505 1508 94.8594 61.6824 451.626
77 0 83.2277 15.007 1249 102.954 61.8575 457.034
78 0 82.1682 15.4074 1266 104.735 61.9534 455.249
79 0 81.1073 13.1554 1067 113.389 62.2006 458.424
80 0 82.1291 13.5153 1110 114.009 62.5495 456.581
81 0 86.1478 13.1286 1131 113.187 62.7719 456.458
82 0 90.139 13.4126 1209 112.139 62.1232 450.05
83 0 91.1706 14.0725 1283 112.589 61.5604 409.376
84 0 93.2378 13.9965 1305 113.346 61.695 405.048
85 0 95.113 14.2462 1355 113.097 60.9247 400.736
86 0 99.2711 14.4654 1436 111.682 61.2765 408.239
87 0 101.252 13.5109 1368 113.914 61.3984 415.473
88 0 105.219 15.3299 1613 109.006 61.6981 421.59
89 0 106.235 13.376 1421 114.087 61.5771 430.667
90 0 111.225 14.8618 1653 108.75 62.0145 442.544
91 0 114.243 14.1978 1622 109.961 61.6813 440.724
92 0 118.296 14.4299 1707 108.216 61.6673 436.159
93 0 121.352 13.3907 1625 110.818 60.8191 435.452
94 0 124.464 14.004 1743 110.709 62.284 430.343
95 0 127.309 14.0288 1786 110.901 61.3639 431.282
96 0 133.324 14.206 1894 108.508 61.2049 430.162
97 0 138.362 14.014 1939 107.417 61.5786 427.005
98 0 142.719 14.4409 2061 107.179 61.2858 424.508
99 1 74.3284 12.2161 908 95.0628 61.5077 459.655
100 0 76.3869 12.5414 958 94.6315 61.4447 458.534
101 0 79.3481 12.6531 1004 95.7331 60.7241 456.143
102 0 81.2286 12.5202 1017 96.2753 60.473 456.314
103 0 84.2512 13.2936 1120 96.2982 60.2759 451.911
104 0 86.3297 12.765 1102 99.2904 59.8294 452.399
105 0 89.1726 12.6048 1124 106.078 60.6201 446.07
106 0 93.2794 13.3148 1242 104.201 60.5435 444.386
107 0 97.2026 14.691 1428 101.324 61.2836 447.631
108 0 98.1295 12.1778 1195 105.98 61.4695 450.35
109 0 100.406 12.9275 1298 105.686 61.0054 446.345
110 0 107.258 13.8731 1488 102.503 60.711 445.718
111 0 107.154 12.4121 1330 106.04 60.8496 445.829
112 0 112.257 13.2464 1487 103.373 60.7814 443.439
113 0 117.084 13.4177 1571 102.104 60.5716 441.658
114 0 120.234 13.9395 1676 99.6277 60.395 440.212
115 0 124.166 13.1195 1629 101.411 59.9282 437.411
116 1 69.099 11.4763 793 92.116 60.0668 466.141
117 0 72.0912 12.0542 869 88.3947 60.8527 466.579
118 0 72.1001 12.0666 870 88.8632 60.6287 463.492
119 0 74.1881 11.8348 878 89.5729 60.7358 460.337
120 0 79.1408 12.0924 957 88.7816 60.9551 462.179
121 0 84.3561 13.2296 1116 85.4884 61.3011 457.217
122 0 88.1822 17.634 1555 76.9441 61.1318 451.53
123 0 86.1876 12.6352 1089 88.5298 60.6189 455.41
124 0 88.2249 13.2616 1170 88.3026 60.1137 454.38
125 0 89.1805 11.3029 1008 92.8899 60.7728 453.136
126 0 93.2076 13.1105 1222 90.0573 60.0548 448.898
127 0 95.1575 13.031 1240 91.0565 59.975 449.507
128 0 98.3982 13.3946 1318 89.9219 60.1032 447.306
129 0 104.138 13.3189 1387 93.2473 60.23 447.137
130 0 106.314 13.0462 1387 94.1413 60.8313 444.945
131 0 107.345 12.5204 1344 96.0885 60.4598 441.004
132 0 111.548 13.3217 1486 95.4166 60.6043 439.763
133 1 61.3632 11.1468 684 94.4254 59.8289 467.95
134 0 61.1896 12.1753 745 94.3289 60.0282 463.054
135 0 61.1919 11.0145 674 96.6335 60.5252 462.966
136 0 65.037 11.7779 766 94.2611 61.4034 466.214
137 0 66.1733 10.0645 666 99.4489 60.0616 465.23
138 0 69.2067 12.4554 862 98.116 60.449 462.812
139 0 72.3455 12.8412 929 96.8881 60.3143 460.986
140 0 73.3427 11.8758 871 98.713 60.4432 459.226
141 0 75.2884 12.9901 978 97.9663 60.0399 455.693
142 0 78.2833 12.0843 946 98.1184 60.0592 456.475
143 0 78.5814 13.1583 1034 96.0629 59.764 454.59
144 0 83.4506 12.9178 1078 94.4805 60.5028 455.919
145 0 83.193 10.662 887 96.7136 60.1635 456.282
146 0 86.0872 10.652 917 96.879 60.3457 454.61
147 0 89.1698 11.8314 1055 93.8711 60.4085 455.283
148 0 93.1217 12.8112 1193 92.3403 60.5817 453.277
149 0 97.1662 11.681 1135 93.8925 60.4855 451.34
150 0 99.1474 10.9635 1087 94.2125 60.5842 450.052
151 0 102.401 10.6639 1092 87.4844 59.5348 447.52
152 0 101.226 10.4321 1056 92.9025 60.7917 444.098
153 0 107.224 10.492 1125 92.0053 60.6107 443.988
154 1 57.1651 10.2685 587 87.3833 60.8058 469.487
155 0 57.1517 9.0461 517 89.5899 61.2863 467.135
156 0 61.1469 10.6629 652 85.4509 61.161 466.986
157 0 61.0994 10.3765 634 86.8139 61.1498 467.528
158 0 63.1356 10.8497 685 85.7577 60.0613 467.343
159 0 65.1214 11.8394 771 84.7704 60.3761 465.711
160 0 68.1522 10.6233 724 87.0622 59.739 463.931
161 0 69.0722 10.7713 744 87.7298 60.2661 463.694
162 0 74.0806 12.8779 954 83.6258 60.6101 463.321
163 0 75.1243 12.4327 934 85.8994 59.5385 460.896
164 0 76.0952 11.2359 855 89.8094 59.6105 459.581
165 0 78.1021 11.6642 911 89.3919 59.8924 460.151
166 0 86.1893 14.1549 1220 84.0377 59.3508 454.976
167 0 86.1253 12.6095 1086 88.6878 59.5912 455.087
168 0 86.1743 12.0338 1037 91.2228 59.7358 457.434
169 0 90.1433 12.347 1113 91.5301 59.3881 454.098
170 0 93.1477 12.2494 1141 92.6407 59.3918 452.961
171 0 96.183 12.1227 1166 93.7496 60.012 451.462
172 0 97.1624 11.2801 1096 96.1505 59.6168 447.931
173 0 101.133 10.857 1098 96.5883 59.4882 449.268
174 1 52.2246 11.8526 619 89.7528 60.021 473.911
175 0 52.1689 11.0411 576 93.1979 60.1076 471.172
176 0 56.0819 12.1964 684 90.8114 59.9708 470.402
177 0 57.0225 12.9773 740 89.3149 60.2716 468.899
178 0 58.1162 11.9244 693 91.8831 59.1746 467.076
179 0 61.0856 13.2437 809 89.4734 59.3399 466.063
180 0 63.0481 11.5467 728 92.1511 58.9904 467.18
181 0 64.0381 12.6956 813 89.9077 58.8044 466.178
182 0 67.207 13.8081 928 86.6185 58.9256 464.631
183 0 69.0916 11.9407 825 89.0727 59.2848 462.232
184 0 71.075 11.5653 822 88.7287 58.6119 462.796
185 0 72.0678 12.1968 879 88.2708 59 463.092
186 0 74.0902 11.324 839 89.7139 59.112 460.905
187 0 77.0704 10.977 846 90.4007 59.8723 459.339
188 0 79.1793 12.7432 1009 88.112 58.9435 456.339
189 0 80.1035 11.3728 911 88.5357 58.7827 457.809
190 0 79.0641 9.95395 787 91.2046 58.6468 460.151
191 0 85.2819 11.1747 953 89.7492 59.5866 457.621
192 0 86.1101 11.0672 953 90.1826 59.9874 457.093
193 0 89.107 10.4144 928 90.9591 59.9784 454.218
194 0 93.0882 10.9574 1020 89.7108 59.9951 452.788
195 0 96.1 12.2581 1178 87.5815 60.1112 450.025
196 0 97.1671 11.5574 1123 89.2431 59.0846 446.177
197 0 101.134 10.8667 1099 89.5414 59.0692 450.009
198 0 103.146 10.3445 1067 90.1406 58.5183 440.069
199 0 110.118 11.9417 1315 87.111 58.7863 441.639
200 1 60.1539 11.8197 711 82.9944 59.3333 465.706
201 0 64.0781 10.8461 695 88.8446 59.1194 463.129
202 0 67.124 11.6799 784 84.5166 59.8788 463.731
203 0 66.1701 10.4579 692 90.1026 59.7702 466.741
204 0 71.1624 11.5089 819 87.3199 59.0891 464.001
205 0 72.0551 11.9492 861 87.3577 58.8165 464.109
206 0 74.1419 12.0714 895 87.8961 58.7251 463.884
207 0 76.0581 9.71625 739 93.0433 58.9283 460.635
208 0 80.0585 12.978 1039 87.334 58.6035 456.726
209 0 83.094 12.8288 1066 88.1069 59.5779 455.797
210 0 89.1065 13.9159 1240 86.8645 59.675 456.488
211 0 88.1464 12.3431 1088 91.8336 60.1011 454.925
212 0 92.1483 12.1652 1121 98.9313 60.3113 452.45
213 1 47.0928 10.3413 487 96.4579 59.8357 474.589
214 0 51.027 11.6409 594 94.2205 60.7828 474.369
215 0 54.0883 11.925 645 91.7876 60.1783 474.31
216 0 55.0475 11.6445 641 97.3573 60.1872 473.011
217 0 55.0703 11.676 643 91.1291 59.8865 472.278
218 0 57.0812 13.7173 783 87.3755 60.8238 473.968
219 0 59.0644 12.1224 716 91.088 60.8226 470.184
220 0 61.0936 11.8016 721 92.0791 60.3842 469.513
221 0 63.0711 12.6999 801 90.9388 60.7241 467.868
222 0 64.1221 12.3514 792 91.6818 60.6667 466.928
223 0 67.1679 12.5953 846 85.1348 59.7151 462.213
224 0 67.0289 11.7412 787 92.3253 59.1105 465.986
225 0 67.0253 10.9809 736 94.0082 59.2052 465.014
226 0 72.104 11.3309 817 88.5924 59.4419 461.528
227 0 77.0969 12.5816 970 90.4124 58.7 461.775
228 0 79.1063 12.6159 998 90.4679 59.017 458.685
229 0 81.0811 12.1113 982 91.3727 59.2892 458.27
230 0 85.0985 13.2082 1124 88.7073 59.6806 458.771
231 0 87.073 12.2426 1066 90.712 59.6004 457.598
232 1 43.0185 10.6233 457 95.3982 60.372 478.685
233 0 47.0461 10.8404 510 100.069 60.2725 477.6
234 0 51.358 12.9678 666 97.3153 59.2447 469.441
235 0 50.1332 12.746 639 99.6651 58.9984 470.865
236 0 52.0488 12.0656 628 105.954 59.5669 470.446
237 0 53.0457 11.9143 632 105.9 59.1076 470.394
238 0 56.0221 12.4594 698 105.016 59.0229 469.58
239 0 56.0475 13.3637 749 104.717 58.0521 469.029
240 0 57.0287 12.3622 705 108.589 58.305 467.244
241 0 60.0277 13.9103 835 104.568 58.0754 468.418
242 0 59.0951 11.9807 708 111.299 59.8658 469.818
243 0 62.1021 13.6549 848 107.889 59.5719 468.018
244 0 67.1096 15.4225 1035 100.193 59.9333 465.339
245 0 65.1601 13.7508 896 107.998 60.2121 465.712
246 0 68.1138 13.4774 918 108.5 59.8649 465.089
247 0 71.092 14.0663 1000 106.247 60.05 464.029
248 0 72.1559 13.5678 979 109.225 59.5475 462.882
249 0 75.0577 15.3748 1154 104.722 59.9697 462.06
250 0 76.2185 14.2616 1087 109.163 59.8151 459.12
251 0 78.0493 14.2858 1115 109.505 59.5121 457.7
252 0 79.1428 14.139 1119 111.784 59.5192 459.174
253 0 83.1212 14.0397 1167 112.183 60.5913 457.919
254 0 85.0957 15.4062 1311 108.013 60.6438 456.805
255 0 88.0924 14.4621 1274 110.593 59.9042 456.137
256 0 89.1715 13.6703 1219 113.573 59.21 454.589
257 0 89.0756 13.2809 1183 117.107 59.8605 455.328
258 0 92.0686 12.6753 1167 119.181 60.1817 454.961
259 0 92.0962 12.2372 1127 120.697 59.0089 452.237
260 0 97.0659 13.6917 1329 117.47 59.8503 450.745
261 0 101.092 13.3146 1346 117.631 60.4785 450.796
262 0 103.085 13.6101 1403 119.221 59.6115 448.32
263 0 106.118 12.1845 1293 120.206 58.7494 445.707
264 0 110.086 12.681 1396 117.211 58.8352 444.653
265 0 114.32 12.5699 1437 116.406 59.5532 440.608
266 1 60.0477 12.4401 747 108.712 58.4324 465.874
267 0 62.1064 12.5591 780 118.079 59.4359 467.438
268 0 65.0894 13.1972 859 117.284 59.5821 466.183
269 0 66.1301 12.9896 859 117.369 59.2282 464.999
270 0 70.1987 12.9632 910 117.473 59.1989 463.435
271 0 69.159 13.4183 928 118.122 59.6175 462.547
272 0 72.1728 13.6617 986 117.15 58.5811 460.059
273 0 75.0716 13.6137 1022 117.251 58.9922 459.936
274 0 79.0879 13.6304 1078 118.144 59.4128 459.736
275 0 81.1348 13.7795 1118 116.097 58.8318 458.114
276 0 86.1362 17.124 1475 106.965 59.9261 455.059
277 0 87.1099 14.453 1259 115.12 59.3193 454.036
278 0 87.0893 13.2737 1156 119.567 59.3668 453.387
279 0 89.3109 13.1675 1176 119.293 59.7474 452.364
280 0 91.1509 14.0207 1278 118.275 60.0336 450.692
281 0 96.1676 14.142 1360 117.129 59.5353 447.306
282 0 99.2535 12.8761 1278 118.927 59.1643 450.009
283 1 49.071 10.9841 539 114.566 60.3377 470.098
284 0 51.1618 11.6298 595 116.904 60.0235 466.661
285 0 52.1729 12.5353 654 115.373 60.3502 465.995
286 0 54.1178 12.3804 670 114.797 60.6627 468.26
287 0 56.0582 11.2562 631 117.442 60.5277 466.412
288 0 57.0683 13.7554 785 112.409 60.228 463.684
289 0 60.0738 11.9686 719 115.056 60.2643 466.095
290 0 63.1315 13.1313 829 112.218 60.3402 464.08
291 0 64.1218 11.8213 758 116.036 60.1939 462.736
292 0 66.0796 12.8179 847 112.891 59.9929 463.802
293 0 68.0685 13.6333 928 112.792 59.7672 461.514
294 0 70.1378 12.8176 899 115.077 59.7086 458.774
295 0 72.1165 12.258 884 115.802 60.0905 459.824
296 0 72.0875 12.9565 934 114.931 60.0824 464.264
297 0 74.0724 13.3383 988 114.603 59.5263 462.191
298 0 78.1197 13.5049 1055 113.909 59.5915 460.717
299 0 78.0683 13.2064 1031 115.884 59.3511 460.543
300 0 83.1698 14.0436 1168 113.414 59.6541 457.328
301 0 85.2562 12.9375 1103 116.659 59.6627 457.508
302 0 89.1022 15.0277 1339 111.387 59.3084 454.294
303 0 89.079 12.8874 1148 118.267 59.297 454.794
304 0 95.1976 13.4772 1283 116.202 59.4061 448.58
305 0 96.2497 13.9013 1338 115.611 59.6577 449.734
306 0 98.1991 13.4828 1324 117.725 59.6866 447.153
307 0 102.128 13.0522 1333 117.291 59.5544 450.769
308 0 105.234 13.2657 1396 117.253 59.99 447.421
309 0 108.169 12.9335 1399 118.475 60.2538 444.728
310 0 111.165 13.2506 1473 117.25 59.3489 442.144
311 0 117.153 14.3232 1678 111.944 59.6549 441.749
312 0 120.113 13.9202 1672 114.106 59.7135 435.936
313 0 125.131 13.8815 1737 113.159 60.1537 429.355
314 0 126.125 13.8037 1741 114.297 60.081 427.511
315 0 133.269 12.9738 1729 115.809 59.5257 429.827
316 0 137.229 13.6341 1871 115.008 60.52 424.338
317 0 143.24 14.0882 2018 113.976 60.4594 422.255
318 0 147.254 13.1202 1932 116.392 60.3142 421.431
319 0 152.385 14.0565 2142 114.589 60.5065 418.464
320 0 157.159 14.7112 2312 113.147 60.4226 414.697
321 0 160.255 13.6782 2192 115.435 59.3472 413.14
322 0 165.337 13.1126 2168 116.893 60.5567 412.415
323 1 179.213 11.4891 2059 117.408 60.5313 417.551
324 0 180.267 14.3787 2592 112.786 60.2542 405.668
325 0 185.518 14.3059 2654 113.426 61.0512 402.935
326 0 191.314 14.3481 2745 113.232 60.7027 402.566
327 0 197.459 14.6613 2895 111.568 60.8066 399.859
328 0 203.43 13.6755 2782 114.336 60.8853 396.127
329 0 212.332 14.9059 3165 111.159 60.3754 390.727
330 1 63.1846 11.047 698 104.88 60.9885 467.559
331 0 64.1701 13.4486 863 101.435 60.6037 465.636
332 0 67.1425 13.2554 890 104.085 60.9528 466.318
333 0 69.1136 14.0783 973 102.408 60.8479 463.621
334 0 71.0869 12.8012 910 104.703 61.0538 465.497
335 0 75.1771 12.9827 976 104.017 60.9549 462.837
336 0 76.1469 13.4346 1023 103.543 60.4907 460.046
337 0 79.1272 13.1181 1038 103.679 61.0867 460.288
338 0 83.1489 14.3598 1194 100.141 60.6508 459.177
339 0 86.1701 14.042 1210 101.279 59.7702 456.052
340 0 88.2019 12.8569 1134 102.732 59.6014 457.18
341 0 88.1784 12.7242 1122 103.839 60.0838 455.217
342 0 93.1679 14.7154 1371 99.2764 60.6353 453.772
343 0 97.2232 13.8239 1344 101.777 60.0521 449.269
344 0 99.0957 14.0672 1394 102.094 60.1514 450.021
345 0 103.231 13.7653 1421 103.457 59.7607 447.498
346 0 106.17 14.2601 1514 101.192 59.9188 446.806
347 1 56.1786 11.4278 642 97.9735 59.9299 469.773
348 0 59.1227 11.8905 703 105.203 60.4424 469.595
349 0 61.1576 12.3615 756 104.319 60.3585 469.456
350 0 61.1696 11.7542 719 105.295 59.9833 469.652
351 0 64.1469 13.6717 877 100.982 59.8233 465.389
352 0 66.1485 13.2883 879 101.518 59.5597 465.939
353 0 67.2063 13.1089 881 100.982 59.1759 462.815
354 0 69.1932 13.2238 915 101.48 59.6317 461.356
355 1 82.3313 16.3972 1350 86.9259 59.8674 453.91
356 0 81.2098 15.2322 1237 92.4778 59.9693 456.854
357 0 83.2066 15.792 1314 90.9148 59.9041 455.746
358 0 84.2253 16.349 1377 91.0341 59.7415 449.675
359 0 81.2161 12.6945 1031 96.258 59.8293 460.035
360 0 94.169 21.6844 2042 75.1303 59.6224 445.766
361 0 93.0464 15.6911 1460 87.1144 59.7055 451.122
362 0 91.1904 11.4815 1047 97.4212 60.0764 456.669
363 0 92.2048 11.1274 1026 97.5897 60.0867 455.03
364 0 99.2069 14.0514 1394 90.6291 59.8364 443.696
365 0 102.355 12.0268 1231 96.4582 60.0512 451.702
366 0 99.1594 11.8698 1177 99.0076 60.4155 452.317
367 0 92.1248 10.9091 1005 98.9672 59.3383 453.099
368 1 55.0199 11.0869 610 98.2443 59.5967 466.834
369 0 56.0563 12.7372 714 95.2045 59.9734 470.52
370 0 56.1218 11.671 655 95.2824 60.1008 473.174
371 0 61.0679 12.3305 753 93.8619 60.2842 469.963
372 0 64.1199 13.0537 837 93.8984 59.7551 459.172
373 0 65.0265 12.8563 836 94.8732 59.5837 460.812
374 0 68.0972 13.5688 924 94.5541 60.2587 461.654
375 0 67.0447 12.8123 859 99.1932 59.8522 462.255
376 0 70.1015 12.4106 870 99.3506 60.4977 460.756
377 0 74.1402 13.9735 1036 95.7973 59.9865 461.235
378 0 75.1118 12.9008 969 99.9845 59.2941 458.378
379 0 78.1577 12.6539 989 100.689 59.3549 456.861
380 0 80.1021 12.3717 991 102.931 59.8123 455.512
381 0 84.294 12.0768 1018 104.318 59.9028 457.18
382 1 43.1244 11.0146 475 106.293 60.1179 473.813
383 0 45.0465 11.588 522 103.335 60.6858 473.6
384 0 46.1647 11.6756 539 90.7477 61.0353 468.948
385 0 45.0841 11.7115 528 92.1098 61.5625 471.074
386 0 48.0201 11.7659 565 91.6531 59.9558 467.349
387 0 49.0446 12.3357 605 91.9322 60.3785 468.155
388 0 51.1577 13.4877 690 89.6333 60.3217 469.435
389 0 53.0308 12.6719 672 97.9732 60.0655 472.987
390 0 54.058 12.0981 654 99.8242 60.0443 470.456
391 0 56.1427 13.3588 750 96.252 60.0907 469.608
392 0 57.2117 13.1267 751 96.1704 60.0466 468.863
393 0 60.0276 13.1939 792 97.1477 59.7828 469.967
394 0 63.0711 14.0001 883 94.6217 59.8494 468.316
395 0 64.1073 15.0997 968 94.064 59.8306 465.228
396 0 66.0393 13.6585 902 96.4767 59.6486 467.344
397 0 67.1552 13.9676 938 96.5117 59.774 465.126
398 0 70.1573 14.0399 985 96.9858 59.336 463.868
399 0 70.1959 13.1204 921 101.34 59.4593 461.156
400 0 73.098 13.8034 1009 100 59.5253 459.294
401 0 77.0819 15.0489 1160 96.3681 60.0612 457.809
402 0 78.1209 12.4039 969 103.708 60.0743 455.039
403 0 82.1262 14.8308 1218 97.5878 59.4721 453.877
404 0 83.0931 13.1178 1090 102.278 59.5991 454.039
405 0 87.0864 13.1823 1148 102.873 60.1977 453.422
406 0 89.2163 13.6634 1219 100.671 58.8089 449.011
407 0 94.098 13.2203 1244 100.691 59.9984 452.301
408 0 96.053 13.1282 1261 101.62 59.4393 449.422
409 0 100.131 12.5236 1254 105.96 59.5654 449.177
410 0 104.11 12.506 1302 106.194 59.841 446.569
411 0 108.1 12.9047 1395 105.009 59.9355 445.267
412 1 56.0388 15.3465 860 98.6477 60.057 468.616
413 0 57.0293 13.4317 766 103.642 60.1658 467.072
414 0 60.0554 12.5551 754 104.219 60.118 467.267
415 0 61.0614 14.3953 879 100.679 59.5836 463.332
416 0 65.0595 13.4185 873 101.444 59.567 464.329
417 0 67.0884 13.8623 930 100.475 59.0613 461.302
418 0 69.101 14.1966 981 99.8094 59.4373 461.93
419 0 71.0944 14.3049 1017 100.065 59.4238 460.228
420 0 72.0981 14.0226 1011 101.772 59.7864 456.944
421 0 75.118 13.6452 1025 102.137 59.6751 456.515
422 0 78.1603 13.3956 1047 102.235 59.1757 453.252
423 0 81.1574 13.8003 1120 101.525 59.6098 449.473
424 0 85.1412 13.9298 1186 100.834 59.6054 449.105
425 0 86.0756 13.2093 1137 102.442 58.9692 449.122
426 0 91.1195 14.9803 1365 97.9502 59.6132 447.636
427 0 91.2352 13.8981 1268 101.131 59.8525 448.901
428 0 94.2415 13.1046 1235 103.189 59.9498 444.696
429 1 107.342 11.4401 1228 102.236 59.7288 448.179
430 0 102.183 13.5248 1382 101.438 59.3075 438.472
431 1 50.0663 11.325 567 94.612 59.6649 462.878
432 0 55.2017 10.9779 606 92.5462 60.4191 467.668
433 0 57.0866 12.0519 688 92.1977 59.5814 467.337
434 0 58.0317 12.5966 731 96.8878 60.0233 466.577
435 0 60.1088 11.9949 721 96.0499 60.2691 464.363
436 0 62.2422 10.9251 680 103.76 60.1059 460.428
437 0 64.0588 12.3636 792 100.003 60.4609 462.21
438 0 65.2035 9.76942 637 104.871 59.4286 460.281
439 0 68.1382 11.5794 789 102.368 60.1115 460.558
440 0 74.0941 14.0227 1039 104.808 59.3619 461.921
441 0 78.113 12.7764 998 108.819 59.5691 462.924
442 0 78.0856 12.8449 1003 110.159 59.9781 461.056
443 0 82.084 12.6212 1036 110.821 59.7983 458.995
444 0 86.0749 13.7555 1184 106.959 60.6613 459.447
445 0 89.0532 13.7221 1222 107.276 59.1129 456.458
446 0 92.0817 14.0636 1295 107.342 60.288 454.154
447 1 52.0175 12.1113 630 102.179 61.2222 474.979
448 0 53.0438 11.4622 608 98.5905 60.1168 475.342
449 0 55.0679 12.9658 714 99.8725 59.4258 472.399
450 0 57.0482 11.3062 645 93.2388 59.7163 475.374
451 0 56.1 11.3547 637 94.0518 59.8163 474.035
452 0 56.0828 10.8589 609 96.0427 60.6388 472.964
453 0 60.1012 10.1163 608 96.6299 60.7599 472.321
454 0 62.055 10.4746 650 95.9077 60.2954 471.143
455 0 65.1342 12.574 819 92.4444 60.1136 468.702
456 0 68.0366 11.9495 813 91.7023 60.0369 466.622
457 0 70.1417 10.9635 769 91.459 60.0442 467.874
458 0 73.0996 11.286 825 91.0073 59.9006 464.673
459 0 73.0706 10.1819 744 91.668 59.5847 466.427
460 0 76.178 10.948 834 91.0288 59.7722 461.921
461 0 81.1321 11.3026 917 90.4766 59.9128 461.843
462 0 83.1091 10.9976 914 91.6028 60.2079 458.438
463 0 85.106 9.16504 780 94.1026 59.9218 458.988
464 0 90.1371 11.5491 1041 90.4448 59.6244 456.921
465 0 95.2362 12.4637 1187 87.9318 58.9461 455.469
466 1 51.0392 10.8348 553 90.9675 59.7324 475.027
467 0 52.0778 11.9821 624 98.4519 58.867 471.982
468 0 54.1686 12.5719 681 97.0294 59.4332 471.91
469 0 57.0377 11.0103 628 98.3073 59.4268 472.258
470 0 57.1218 10.819 618 99.8252 59.4628 471.191
471 0 60.1339 10.4766 630 101.865 59.681 470.092
472 0 60.1356 11.4075 686 100.09 59.398 469.408
473 0 64.1439 12.472 800 97.1538 59.455 467.12
474 0 60.0884 10.2016 613 89.9543 59.46 471.289
475 0 61.0731 8.59626 525 90.4476 58.6686 476.27
476 0 65.0854 8.21997 535 93.157 58.8579 469.14
477 0 69.0583 10.8025 746 90.6448 59.0214 464.922
478 1 144.184 12.8586 1854 92.0669 58.7222 429.809
479 0 151.225 12.8418 1942 92.9006 59.4475 424.987
480 0 158.139 12.742 2015 92.7702 58.9926 423.736
481 0 161.277 13.0397 2103 92.3619 59.1854 423.916
482 1 85.1486 10.511 895 92.1374 59.1598 460.274
483 0 87.1061 10.2978 897 92.5307 59.1561 461.069
484 0 91.199 11.7545 1072 91.7332 58.9478 455.563
485 0 95.1235 11.0067 1047 96.7794 59.3343 456.25
486 0 94.1345 11.2817 1062 97.8164 60.1667 457.38
487 0 102.111 10.9194 1115 97.4413 59.9256 456.337
488 0 101.348 11.7615 1192 96.6804 59.0814 454.828
489 0 106.205 12.1558 1291 97.8025 58.8792 446.648
490 1 62.0474 10.0407 623 95.9213 59.3467 473.181
491 0 62.1634 11.4537 712 94.3961 59.7711 470.167
492 0 62.2903 11.0451 688 95.561 60.314 472.632
493 0 65.1766 12.6886 827 92.8029 60.4474 469.131
494 0 65.0304 12.4403 809 93.9468 60.2905 468.24
495 0 71.1295 12.1609 865 93.0948 59.8416 469.54
496 0 70.0695 11.5742 811 94.7546 58.9716 468.637
497 0 75.0599 12.2302 918 92.902 59.4477 466.223
498 0 73.061 11.1003 811 94.2688 58.7731 466.845
499 0 77.1559 11.8332 913 92.7558 59.0734 464.573
500 0 78.0872 10.9877 858 94.8333 59.5058 462.157
501 0 85.1488 10.4993 894 92.5157 59.4351 461.612
502 0 86.1566 11.9782 1032 90.9409 59.5359 460.941
503 0 87.0956 11.0683 964 92.5373 59.7448 460.057
504 1 48.0477 12.8414 617 89.0794 59.0989 477.003
505 0 48.2189 11.3234 546 93.6484 59.0659 476.467
506 0 46.0403 11.4465 527 87.9051 59.0892 480.459
507 0 49.0725 11.0856 544 87.7721 59.2096 478.759
508 0 49.0973 10.9986 540 87.7111 60.1296 477.361
509 0 54.0883 8.89286 481 90.3202 59.8524 476.84
510 0 52.1176 9.61287 501 89.3533 60.3353 477.036
511 0 53.1138 8.96189 476 91.1471 59.1471 477.16
512 0 53.102 9.79248 520 90.5885 59.2712 475.01
513 1 114.197 9.39608 1073 94.3439 59.0084 447.133
514 0 118.122 12.9273 1527 88.5344 58.9843 446.474
515 0 120.069 10.1692 1221 94.1581 58.484 445.06
516 0 126.232 10.7342 1355 92.3638 57.6022 444.814
517 0 131.16 11.6346 1526 91.9489 58.0701 439.404
518 1 65.0771 11.7707 766 90.6971 58.7585 467.201
519 0 68.2762 11.5414 788 89.4201 59.2246 471.305
520 0 70.1354 12.5757 882 88.8537 59.542 467.264
521 0 70.2865 11.3251 796 92.3807 59.0427 465.103
522 0 77.1521 13.6224 1051 87.5052 59.0999 463.247
523 0 76.2118 11.5993 884 91.1527 58.819 466.519
524 0 80.2615 12.6711 1017 90.4838 58.7414 460.972
525 0 81.2415 11.9274 969 92.4954 59.3354 462.317
526 0 83.3369 10.7875 899 95.7397 59.1869 458.75
527 0 85.325 12.8684 1098 91.6084 58.9162 458.869
528 0 88.2536 12.4754 1101 93.0109 58.3088 456.11
529 0 91.259 11.8125 1078 94.3785 59.3275 457.832
530 0 94.4049 11.8002 1114 95.4004 59.4641 453.654
531 0 94.0671 12.5868 1184 92.7449 58.8454 452.992
532 0 98.2132 10.3245 1014 96.2081 59.3836 449.81
533 0 102.183 12.8886 1317 92.3022 58.65 445.562
534 0 106.197 10.2545 1089 95.5243 58.1625 453.032
535 0 109.194 11.539 1260 94.8087 57.8468 445.929
536 0 115.128 11.3179 1303 94.9432 58.35 442.559
537 0 122.189 11.6541 1424 94.3153 58.0695 439.716
538 0 124.351 12.7623 1587 93.0813 58.9049 443.683
539 0 130.292 11.9271 1554 94.0521 58.5199 441.244
540 0 136.28 11.5131 1569 95.0287 59.3684 440.176
541 0 137.195 10.7147 1470 96.1939 59.9395 441.164
542 1 153.248 7.7391 1186 95.4958 59.3432 456.916
543 0 155.283 9.93027 1542 96.5863 59.3093 439.187
544 0 154.242 10.6262 1639 97.2087 59.3337 433.892
545 0 157.246 10.4168 1638 98.4554 59.3346 430.929
546 0 157.316 12.6942 1997 103.887 59.7837 424.958
547 1 83.1315 11.0548 919 104.764 59.6148 459.001
548 0 89.1458 12.2945 1096 101.443 60.1505 458.602
549 0 91.1128 11.4364 1042 103.779 60.2917 459.073
550 0 94.1562 12.7873 1204 101.307 60.3613 455.299
551 1 186.187 12.5197 2331 104.897 59.4745 409.759
552 0 191.333 11.4826 2197 106.628 59.5426 412.027
553 0 200.388 10.8489 2174 107.915 59.057 408.502
554 1 109.248 12.7326 1391 100.364 60.1589 449.336
555 0 110.25 10.4127 1148 99.5418 59.6315 449.307
556 0 115.179 12.6064 1452 98.6143 60.0441 446.236
557 0 114.131 12.7134 1451 100.165 60.8477 443.017
558 0 116.162 12.121 1408 94.6619 60.7585 445.286
559 1 172.28 12.1546 2094 98.3811 60.2202 414.161
560 0 175.358 12.7967 2244 98.5245 60.1043 416.596
561 0 176.24 12.7383 2245 97.5764 59.9314 420.114
562 1 64.1941 11.9014 764 101.385 59.7853 469.319
563 0 64.0954 11.3425 727 104.33 59.89 469.949
564 0 67.1655 10.9133 733 103.543 59.1528 468.98
565 0 69.2148 11.8616 821 99.9817 60.0621 469.646
566 0 68.2199 11.9613 816 98.935 59.3321 467.415
567 0 73.2111 11.4054 835 97.3509 59.5078 467.204
568 0 74.2382 12.0154 892 96.3161 60.1984 465.145
569 0 73.2044 10.5185 770 96.8195 59.4662 467.604
570 0 80.2213 12.6151 1012 92.833 59.4654 463.13
571 0 82.145 12.3318 1013 94.001 59.4008 459.814
572 0 81.298 11.0212 896 96.3783 58.7656 459.897
573 0 85.3638 12.2534 1046 93.1998 59.0191 462.315
574 0 88.1847 12.8027 1129 94.7166 58.8556 459.206
575 0 91.204 11.2605 1027 98.3096 58.5823 457.818
576 0 90.2756 10.6895 965 102.075 58.4497 455.422
577 0 95.1535 12.9685 1234 95.5008 58.8452 455.644
578 1 52.1994 10.8622 567 93.8695 60.1993 476.709
579 0 52.0369 9.51249 495 95.6182 59.4424 476.988
580 0 55.1374 10.628 586 95.5085 59.5956 477.688
581 0 56.1165 11.1197 624 94.8045 59.5625 477.349
582 0 58.1828 12.4435 724 99.9351 58.4655 469.811
583 0 57.1352 12.0766 690 102.09 58.6913 468.746
584 0 60.1043 11.9459 718 102.065 58.6003 469.398
585 0 62.0739 14.1766 880 98.3205 59.1068 468.076
586 0 62.1639 13.3035 827 100.748 58.9891 472.121
587 0 64.1955 13.6925 879 101.421 59.5666 470.719
588 0 65.1504 12.3253 803 105.457 58.1656 470.497
589 0 67.1406 12.8685 864 105.096 59.3218 470.818
590 0 69.3104 13.2015 915 105.732 59.6426 466.51
591 0 71.2114 13.158 937 106.71 59.5272 466.685
592 0 72.2437 13.0254 941 107.661 59.2508 467.319
593 0 73.1903 12.6246 924 110.455 58.7154 463.506
594 0 76.144 12.8441 978 107.532 59.2321 465.718
595 0 77.2388 12.7915 988 108.6 58.7095 463.607
596 0 80.1695 13.1347 1053 108.169 58.7047 461.085
597 0 83.1802 13.1041 1090 109.432 59.1716 462.646
598 0 87.202 15.3552 1339 103.989 59.2494 463.186
599 0 87.0982 12.1702 1060 113.66 58.9236 460.082
600 0 90.1822 12.9405 1167 112.831 58.7138 457.529
601 0 94.1436 12.6828 1194 114.396 58.3241 456.617
602 0 95.1138 13.815 1314 113.497 57.9779 456.228
603 0 99.3952 13.0791 1300 116.092 58.7323 453.345
604 0 102.198 13.239 1353 115.107 58.8825 453.38
605 1 53.1083 10.8646 577 114.25 58.1646 476.756
606 0 56.1414 11.3285 636 110.827 58.2264 474.112
607 0 57.0923 11.7879 673 101.52 58.5483 474.113
608 0 57.1723 11.6315 665 104.765 58.3233 473.767
609 0 58.1927 11.5478 672 106.426 58.7723 472.49
610 0 61.0395 12.2544 748 107.001 59.2193 474.529
611 0 62.1429 12.5034 777 107.187 58.7773 473.905
612 0 66.0516 12.0663 797 108.03 59.3287 473.363
613 0 66.2038 13.5944 900 109.422 59.4111 471.061
614 0 68.1218 12.7859 871 111.912 59.4202 470.026
615 0 71.0732 12.4942 888 114.838 60.0124 469.014
616 0 70.0973 11.9976 841 117.624 59.5957 466.743
617 0 73.0694 12.536 916 116.138 59.6114 465.433
618 0 74.1102 12.9942 963 114.612 59.2212 463.957
619 0 78.0386 12.0581 941 115.967 59.3656 464.276
620 0 80.0702 11.5399 924 116.698 58.7695 461.8
621 0 84.079 13.9987 1177 107.758 58.4469 458.632
622 0 84.0525 12.8729 1082 111.643 58.647 457.422
623 0 86.1089 11.7874 1015 114.877 58.664 457.987
624 0 88.0648 11.6619 1027 115.952 58.5638 458.484
625 0 92.1101 12.1811 1122 113.34 57.7799 457.366
626 0 96.2113 12.0984 1164 113.863 57.1366 457.064
627 0 101.181 13.8959 1406 109.32 56.2845 453.674
628 0 101.113 12.3031 1244 114.985 56.6953 451.205
629 0 105.13 13.6592 1436 111.439 56.5077 450.088
630 0 109.155 12.6792 1384 114.043 56.5238 450.069
631 0 112.106 13.4783 1511 113.357 56.863 447.214
632 0 113.132 12.1274 1372 115.749 56.3258 446.286
633 0 118.154 13.2962 1571 113.865 56.0948 441.482
634 0 125.145 12.937 1619 114.248 56.9006 440.762
635 0 129.168 12.836 1658 113.96 56.8359 439.129
636 0 132.153 13.9763 1847 111.382 56.9383 434.656
637 0 136.17 13.5493 1845 112.362 55.787 431.167
638 0 141.182 12.6574 1787 114.308 56.7001 430.603
639 0 146.087 12.8279 1874 113.923 55.8575 429.289
640 0 152.206 13.6 2070 111.04 56.3676 426.94
641 0 154.21 12.4311 1917 114.206 56.1028 423.366
642 1 88.1072 11.0774 976 111.522 57.3637 460.141
643 0 92.2788 11.0101 1016 113.433 57.1988 458.714
644 0 92.1791 12.53 1155 107.521 56.871 451.762
645 0 96.1229 12.2864 1181 105.694 57.7231 456.447
646 0 96.184 10.9374 1052 107.959 56.3964 460.663
647 0 100.247 11.6413 1167 106.674 56.9263 454.212
648 0 102.113 11.9573 1221 106.055 57.045 454.734
649 0 110.165 12.0637 1329 106.252 56.3559 452.707
650 0 111.114 11.4297 1270 107.028 57.1898 452.305
651 0 119.169 11.4879 1369 109.004 56.9847 447.994
652 0 123.204 13.0515 1608 105.821 57.5187 440.175
653 1 62.0728 12.2276 759 110.29 57.4005 472.183
654 0 64.0995 12.0126 770 110.123 56.639 471.573
655 0 67.0685 12.7332 854 107.683 57.5539 470.307
656 0 62.0422 10.783 669 104.271 58.2048 473.272
657 0 66.1124 10.9662 725 103.794 58.3352 471.756
658 0 68.2408 10.6534 727 104.095 57.6066 470.29
659 0 69.1175 11.2273 776 102.496 57.9149 470.603
660 0 73.1092 10.9836 803 102.161 58.4707 466.153
661 0 77.1429 10.5518 814 101.178 58.5147 468.353
662 0 79.0877 11.443 905 101.576 58.3171 463.69
663 0 83.2415 11.1483 928 102.845 58.0754 464.051
664 0 86.1757 12.4281 1071 102.053 57.8964 456.666
665 1 49.0764 12.7352 625 103.102 57.6896 476.03
666 0 47.0226 11.6114 546 110.969 58.5147 477.546
667 0 52.1088 12.9921 677 106.251 58.2408 478.417
668 0 52.1284 11.3566 592 111.37 57.9544 475.269
669 0 53.0993 11.0359 586 113.265 58.1775 473.882
670 0 55.1112 11.631 641 111.917 58.6615 473.468
671 0 59.1777 11.7443 695 111.224 58.6158 470.328
672 0 60.1998 12.9735 781 109.493 58.2612 471.301
673 0 60.0999 12.4626 749 111.354 58.773 471.178
674 0 62.0778 12.4038 770 110.552 58.461 470.666
675 0 61.0455 11.8928 726 105.322 57.6736 471.118
676 0 62.0752 11.8244 734 104.883 59.2657 472.781
677 0 63.1252 12.2297 772 103.843 59.1282 470.741
678 0 68.0882 11.8963 810 102.726 57.9926 469.069
679 0 67.1391 11.2155 753 104.526 58.9509 469.862
680 0 71.0752 12.6767 901 101.347 59.3307 465.832
681 0 76.187 10.6186 809 103.595 59.3449 464.897
682 0 77.2001 11.0622 854 101.936 59.1499 465.245
683 0 77.2256 12.3534 954 101.393 58.76 461.454
684 0 82.4442 12.1052 998 100.749 58.5331 460.344
685 0 84.1942 10.7371 904 102.812 59.1538 461.048
686 0 85.2671 9.34709 797 104.507 58.4366 463.001
687 0 87.1755 10.2781 896 104.054 58.7087 456.517
688 1 47.0914 11.0636 521 101.532 58.8061 472.624
689 0 44.0805 9.05163 399 102.922 60.2306 468.361
690 0 50.1284 10.0342 503 87.2366 59.837 470.425
691 0 52.0628 11.0828 577 86.5927 59.8839 470.655
692 0 55.1281 10.3577 571 96.5131 59.1401 473.956
693 0 58.0802 11.3119 657 96.175 59.7458 471.893
694 0 60.1193 12.3089 740 94.1932 59.3932 471.036
695 0 61.1003 12.2749 750 95.9747 58.6773 469.84
696 0 62.0957 11.4823 713 98.1992 58.986 470.017
697 0 65.1307 11.1775 728 97.7953 58.5096 467.629
698 0 65.1 10.9677 714 99.1723 59.6204 466.843
699 0 69.0269 12.401 856 96.7804 59.3879 466.197
700 0 71.0832 12.4783 887 97.7914 59.5321 464.299
701 0 72.1406 11.6439 840 100.987 59.3345 462.86
702 0 77.0972 12.9447 998 98.9038 58.7575 460.474
703 0 80.1398 13.726 1100 99.6336 58.5673 452.749
704 0 82.0391 12.7622 1047 100.84 59.2101 458.739
705 0 85.1515 13.2822 1131 100.816 59.2476 454.808
706 0 90.2312 13.3878 1208 101.721 59.096 453.283
707 0 94.1887 13.8339 1303 101.507 59.1819 454.396
708 0 94.1464 13.9676 1315 104.17 58.6243 449.707
709 0 98.3212 13.0186 1280 106.434 59.1828 446.494
710 0 101.156 13.6522 1381 105.082 58.9363 443.088
711 1 55.107 10.8879 600 107.242 59.7433 466.78
712 0 57.0921 12.3309 704 106.852 58.8864 471.107
713 0 59.1139 13.161 778 107.562 59.9152 471.602
714 0 60.146 12.6525 761 109.61 59.3587 469.143
715 0 65.1456 13.4775 878 106.014 59.1333 469.158
716 0 66.1334 12.7167 841 107.611 59.2866 469.71
717 0 67.1262 13.0203 874 108.498 59.7517 467.942
718 0 71.0837 13.9413 991 105.996 60.1665 466.712
719 0 71.0746 13.2678 943 108.019 59.4517 465.244
720 0 73.0792 13.1091 958 109.473 59.1493 465.069
721 0 77.1039 13.4753 1039 107.344 59.6699 464.527
722 0 78.0777 12.6285 986 111.129 59.7566 461.017
723 0 82.3341 13.9189 1146 108.189 60.1161 458.735
724 0 83.1397 12.7376 1059 110.661 59.2795 458.667
725 0 88.1329 13.8654 1222 107.273 59.689 458.412
726 0 90.1875 12.0527 1087 112.841 59.2079 455.345
727 0 94.1638 14.1137 1329 108.733 58.5132 454.191
728 0 98.2182 14.1522 1390 107.345 58.1741 454.031
729 0 100.307 12.7509 1279 112.034 59.509 451.954
730 0 104.218 12.7905 1333 111.925 59.7592 450.623
731 0 107.265 12.5949 1351 111.184 59.1999 446.873
732 0 112.288 12.4857 1402 107.367 59.3524 450.291
733 1 60.0759 11.6519 700 106.126 59.6929 471.07
734 0 60.0923 11.9483 718 100.042 59.9304 471.485
735 0 64.1127 12.7276 816 96.9902 59.6213 469.567
736 0 66.1599 12.6965 840 95.9833 60.1262 469.594
737 0 69.1408 11.9466 826 97.9056 59.7942 466.808
738 0 73.0692 12.4676 911 96.9824 59.6257 466.571
739 0 72.0866 12.1104 873 100.322 59.6334 465.331
740 0 77.1451 13.3385 1029 96.7726 59.4694 461.935
741 0 80.069 12.6766 1015 98.9695 59.7793 460.905
742 0 83.2544 12.7801 1064 99.0122 59.2387 460.196
743 0 84.0968 12.2121 1027 102.321 59.5433 459.339
744 0 91.1731 13.2166 1205 99.1203 58.5784 457.08
745 0 94.135 13.3319 1255 98.5777 58.6805 456.123
746 1 52.072 11.5801 603 101.854 58.9187 478.308
747 0 52.1133 12.2809 640 101.298 59.3375 476.908
748 0 55.1564 12.6549 698 104.162 58.7636 474.85
749 0 54.0781 10.2999 557 99.4399 58.0485 477.305
750 0 56.1071 11.2642 632 97.5744 57.9525 476.392
751 0 58.0772 12.1562 706 97.3711 58.6445 475.367
752 0 59.0801 11.2559 665 96.3729 58.6902 474.743
753 0 60.1027 12.462 749 95.9599 58.6409 471.403
754 0 65.0739 13.646 888 92.7061 58.7804 469.715
755 0 65.0399 12.1771 792 95.7854 58.3586 474.197
756 0 68.1865 13.0524 890 94.0461 58.3135 469.071
757 0 67.0738 12.5981 845 95.6178 58.5408 470.878
758 0 72.104 13.1893 951 94.3239 58.6667 468.084
759 0 73.0466 13.0191 951 95.3144 58.1788 465.538
760 0 76.0868 13.1692 1002 94.2285 58.48 465.15
761 0 76.1071 11.9437 909 97.6744 58.5072 464.779
762 0 79.1674 12.6062 998 96.0982 58.5581 465.385
763 0 83.1473 12.1712 1012 96.3636 58.2866 462.474
764 0 86.1207 12.4941 1076 96.1877 58.132 460.887
765 0 89.135 10.6692 951 98.5405 58.0957 459.089
766 0 95.1451 13.0853 1245 94.3486 57.0562 457.349
767 0 91.1 12.1734 1109 102.81 58.284 460.046
768 1 45.1173 10.1735 459 100.632 58.2113 483.257
769 0 47.0824 11.2781 531 97.1846 58.1055 483.241
770 0 48.0717 13.3342 641 94.3401 58.4977 481.089
771 0 48.0295 11.139 535 99.3234 58.2449 479.359
772 0 51.0627 11.3978 582 96.012 57.8625 479.55
773 0 49.0303 11.1564 547 95.8501 57.9835 480.766
774 0 54.0718 10.8929 589 97.017 57.7742 478.856
775 0 59.1062 10.6926 632 95.9604 58.1187 478.483
776 0 58.0578 11.5574 671 96.7183 57.9985 475.086
777 0 59.0439 10.6023 626 98.7077 57.23 475.188
778 0 58.0415 11.6468 676 96.2825 57.9216 476.46
779 0 65.1009 11.6435 758 95.2731 57.9644 473.31
780 0 65.0525 12.3439 803 96.274 57.0274 471.456
781 0 69.03 11.4878 793 94.9735 58 470.602
782 0 71.0931 12.2234 869 93.1185 57.4315 469.877
783 0 73.0575 10.9503 800 95.8438 57.3775 469.364
784 0 76.0785 12.027 915 95.4011 57.5661 464.397
785 0 80.0557 12.8036 1025 94.4322 57.8751 463.967
786 0 82.1414 12.2228 1004 95.3446 57.5687 463.204
787 1 47.0298 11.9286 561 95.3672 58.2014 480.111
788 0 51.0361 12.5206 639 96.5415 58.723 479.95
789 0 50.058 12.3856 620 93.8823 59.3952 478.634
790 0 54.0235 11.6986 632 94.7041 56.9256 479.571
791 0 54.0275 13.4191 725 91.6897 56.4303 477.397
792 0 54.0328 12.9736 701 94.8631 56.5835 476.335
793 0 58.0323 12.5792 730 96.6836 57.2726 467.792
794 0 57.0758 12.7374 727 98.9271 56.729 474.195
795 0 61.0581 13.0695 798 97.2845 57.5764 474.496
796 0 60.0504 12.2564 736 100.27 57.0204 474.262
797 0 63.0619 12.2261 771 101.619 57.5383 472.953
798 0 64.0264 13.307 852 99.7711 58.2441 472.486
799 0 67.1559 14.4291 969 98.3364 58.4376 470.873
800 0 70.0687 13.287 931 99.7433 57.9119 470.142
801 0 70.1287 11.0796 777 105.434 57.4955 470.265
802 0 71.1281 11.1489 793 108.953 58.6671 467.821
803 0 76.1336 13.2267 1007 103.195 58.0427 467.45
804 0 79.1583 12.8477 1017 107.202 59.0885 463.639
805 0 80.0956 12.4227 995 108.143 58.4161 465.386
806 0 83.1145 10.9247 908 111.736 57.1806 462.3
807 0 88.1386 12.7186 1121 110.112 58.025 459.149
808 1 48.0142 11.684 561 108.38 57.4528 480.638
809 0 49.09 10.7354 527 112.154 57.2334 479.3
810 0 51.051 12.1447 620 110.521 57.4048 479.242
811 0 52.0275 12.0129 625 103.469 57.4528 477.074
812 0 52.0398 11.8563 617 102.034 56.6272 477.679
813 0 51.0451 11.3821 581 104.866 57.2754 477.632
814 0 55.0676 11.4768 632 103.566 57.5506 477.533
815 0 54.0851 12.1475 657 105.633 57.5936 476.114
816 0 56.0707 11.4677 643 106.432 57.6905 476.145
817 0 57.1435 11.3399 648 106.431 58.0988 477.253
818 0 60.0328 12.6098 757 103.91 57.5376 474.009
819 0 62.0944 12.4488 773 103.942 57.8668 471.392
820 0 64.0542 11.381 729 106.257 57.7791 470.888
821 0 66.0304 10.9041 720 105.225 56.9111 473.11
822 0 68.0739 11.3847 775 104.801 57.8013 470.414
823 0 69.0626 11.5113 795 103.309 57.044 468.889
824 0 71.1913 10.535 750 104.945 57.06 466.892
825 0 75.1167 10.7699 809 102.723 56.7046 467.241
826 0 78.1707 10.9504 856 103.112 57.875 463.606
827 0 80.0851 10.4389 836 103.896 57.5335 464.274
828 0 84.048 12.243 1029 100.477 57.6744 460.672
829 0 89.1014 12.0873 1077 101.36 57.442 458.342
830 0 92.0883 10.9026 1004 104.166 57.257 456.574
831 1 48.06 9.71703 467 106.407 57.0664 478.589
832 0 50.0171 11.4361 572 104.61 56.9633 476.133
833 0 54.0282 11.8827 642 103.491 56.7944 475.936
834 0 55.1452 11.5876 639 103.207 57.2692 474.352
835 0 56.0545 12.9338 725 100.534 57.0083 474.39
836 0 60.0921 10.9332 657 105.053 57.8524 474.216
837 0 60.0338 13.3758 803 99.6538 57.2927 470.91
838 0 63.017 12.9489 816 103.055 57.5392 470.734
839 0 65.09 12.1678 792 104.662 57.0568 470.439
840 0 67.0549 12.2735 823 105.222 57.2661 470.555
841 0 69.0901 13.1423 908 104.818 58.2555 469.102
842 0 70.0397 12.4072 869 109.051 58.374 466.903
843 0 73.0669 12.6323 923 109.627 58.0217 465.781
844 0 74.0817 13.0532 967 111.322 59.0072 464.482
845 0 75.0595 12.4435 934 115.555 58.0985 463.76
846 0 78.1488 12.988 1015 114.796 57.9714 465.817
847 0 77.1 13.5149 1042 117.218 58.9472 464.568
848 0 82.0876 12.0847 992 120.735 58.6361 462.872
849 0 81.2221 13.0753 1062 119.957 59.4237 461.037
850 0 87.2912 12.739 1112 118.862 59.0719 461.677
851 0 90.1124 14.2267 1282 114.932 58.6225 456.705
852 0 93.0588 13.0885 1218 116.917 58.9384 457.586
853 0 95.0634 12.3181 1171 118.868 58.3928 455.347
854 0 98.1376 12.8901 1265 117.768 58.3051 454.144
855 0 100.144 12.8016 1282 117.422 58.6778 451.986
856 0 103.131 11.597 1196 118.884 58.2584 449.755
857 0 107.094 12.9233 1384 114.043 58.1156 446.603
858 0 107.246 11.2172 1203 119.006 58.2735 441.85
859 0 116.118 13.0298 1513 113.369 58.4151 440.86
860 0 118.17 12.5751 1486 113.993 58.1083 438.336
861 0 120.182 12.6391 1519 114.403 58.7452 436.887
862 0 128.205 13.2522 1699 111.616 57.9411 432.623
863 0 131.161 12.557 1647 114.478 57.9041 426.061
864 0 139.205 13.6058 1894 110.731 57.7376 424.986
865 1 72.0708 11.9605 862 105.66 57.9884 456.943
866 0 77.1026 12.3083 949 112.73 58.2929 463.379
867 0 78.0662 12.0539 941 111.443 58.745 463.539
868 0 81.0999 12.9717 1052 109.163 58.2548 461.35
869 0 83.0845 12.6137 1048 111.038 58.916 460.65
870 0 87.0921 12.9174 1125 111.335 58.744 457.929
871 0 89.0813 12.2023 1087 113.847 58.3477 457.036
872 0 93.0629 13.002 1210 111.975 57.8983 455.129
873 0 96.0998 13.6941 1316 111.323 58.4536 452.34
874 0 98.1067 14.4537 1418 110.785 58.0691 451.538
875 0 101.108 13.0157 1316 114.906 57.8412 448.9
876 0 104.112 13.5527 1411 113.6 58.6804 449.068
877 0 103.159 12.2627 1265 116.667 58.0055 448.174
878 0 111.146 13.1988 1467 113.303 57.8439 442.375
879 0 113.14 11.7819 1333 113.953 57.6249 428.676
880 0 121.237 12.8179 1554 110.952 57.6429 426.297
881 0 122.228 11.8958 1454 115.895 57.8308 429.039
882 0 129.173 12.9748 1676 111.438 57.0215 426.766
883 0 137.287 14.2985 1963 106.72 58.0112 425.798
884 0 138.113 11.9612 1652 113.398 57.6749 422.907
885 0 142.132 11.6723 1659 113.6 57.1851 419.462
886 0 148.189 12.2006 1808 112.442 56.9452 415.725
887 1 86.2288 10.6925 922 107.11 57.6573 452.43
888 0 93.0672 12.2277 1138 109.87 56.8585 454.914
889 0 94.1171 12.3676 1164 106.74 56.9545 454.378
890 0 98.0594 13.1349 1288 104.303 57.2578 451.962
891 0 101.201 13.5868 1375 104.928 57.7913 448.625
892 0 104.152 13.4515 1401 105.473 57.5232 444.926
893 0 108.169 12.7949 1384 107.897 57.1842 439.323
894 0 112.21 12.6548 1420 108.89 57.9894 442.767
895 0 116.108 13.3582 1551 108.19 57.3959 440.789
896 0 119.134 13.1029 1561 113.524 56.8053 439.286
897 0 122.108 13.0213 1590 114.489 56.8912 435.794
898 0 126.095 12.903 1627 114.313 56.7468 431.854
899 0 130.112 13.9034 1809 110.974 57.5058 428.62
900 0 136.164 14.4311 1965 106.032 58.1735 427.401
901 0 141.293 13.1924 1864 108.745 58.0553 421.34
902 0 148.113 11.4507 1696 111.776 58.3314 430.5
903 0 147.12 9.63162 1417 111.698 57.65 436.564
904 0 147.121 6.63399 976 109.082 57.9508 456.292
905 1 86.0763 13.1511 1132 105.396 57.6087 455.79
906 0 89.1385 13.2378 1180 104.995 57.7542 455.21
907 0 93.113 13.1024 1220 106.011 57.4303 450.499
908 0 96.2651 13.0889 1260 105.728 57.6968 452.988
909 0 100.065 14.3407 1435 104.544 58.0509 449.034
910 0 103.121 12.2865 1267 109.522 57.3639 444.14
911 0 106.152 14.5735 1547 103.999 58.0621 443.447
912 0 109.156 11.937 1303 110.486 58.2034 443.794
913 0 111.162 13.3948 1489 107.557 56.7032 436.018
914 0 118.352 14.271 1689 104.835 58.4967 437.684
915 0 120.063 13.8927 1668 105.913 58.3459 436.944
916 1 61.0811 9.98672 610 111.575 58.0443 458.826
917 0 63.061 12.0201 758 107.38 58.3879 456.768
918 0 72.1272 13.1712 950 103.334 58.1874 462.358
919 0 73.0687 13.7131 1002 101.683 57.8453 462.521
920 0 74.1008 13.3737 991 103.715 58.0303 460.586
921 0 77.1081 13.4097 1034 103.337 57.8143 458.588
922 0 79.074 14.556 1151 101.308 57.7498 457.18
923 0 81.1615 14.0214 1138 103.765 57.1309 457.869
924 0 83.097 12.9247 1074 106.91 58.2868 456.269
925 0 87.205 14.0015 1221 104.652 58.4758 451.443
926 0 91.2377 13.6785 1248 105.545 58.3133 451.486
927 0 94.1189 13.6954 1289 105.192 57.5981 447.728
928 0 98.1551 13.6213 1337 103.625 57.6574 449.769
929 0 100.054 13.7025 1371 104.294 57.9001 444.43
930 0 103.059 13.8271 1425 104.234 58.4618 444.256
931 1 53.037 9.80448 520 108.188 59.0231 471.377
932 0 52.0454 10.6253 553 105.465 59.8499 469.756
933 0 51.0317 9.77824 499 108.192 59.1924 464.739
934 0 56.1279 10.2088 573 107.529 58.9913 467.305
935 0 57.0589 9.63915 550 91.9709 59.4018 466.22
936 0 58.1139 8.96515 521 91.8983 58.263 460.555
937 0 60.0558 12.0055 721 89.6574 58.4813 460.118
938 0 61.0523 10.4992 641 90.0374 58.7005 463.232
939 0 62.0431 8.81645 547 93.5064 58.8154 462.594
940 0 62.1527 10.1041 628 93.7054 58.9506 455.866
941 0 65.1418 9.99358 651 95.0876 58.1567 456.233
942 0 69.0515 11.1945 773 90.7814 59.5834 457.903
943 0 74.1037 8.98741 666 94.0315 59.1832 455.246
944 0 73.1402 10.4457 764 92.0877 58.9463 454.808
945 0 76.1054 10.9059 830 93.2687 58.2916 450.288
946 0 80.1352 10.6944 857 92.4784 58.5368 452.096
947 0 83.2174 10.5266 876 95.3676 58.0514 448.92
948 0 88.1604 12.999 1146 94.7504 58.2871 445.196
949 0 94.0974 13.2947 1251 100.591 57.6163 445.347
950 0 100.098 13.287 1330 105.139 57.8421 448.171
951 1 50.0545 9.98912 500 99.102 58.84 472.516
952 0 52.1335 12.2762 640 97.2328 58.375 468.423
953 0 55.0418 11.5548 636 104.945 57.3412 470.124
954 0 57.0707 11.9326 681 104.056 57.0954 471.006
955 0 59.0243 11.4868 678 105.183 57.3038 469.187
956 0 61.0465 13.3669 816 101.544 57.0968 467.75
957 0 62.0643 11.5364 716 105.915 57.2444 468.349
958 0 65.0973 12.3507 804 104.359 57.1642 463.613
959 0 67.0995 11.9375 801 104.91 58.1161 465.493
960 0 70.1419 12.6315 886 104.156 57.9718 464.194
961 0 72.0459 12.5337 903 105.951 57.3942 462.814
962 0 72.0463 12.95 933 105.879 58.8885 462.18
963 0 76.0489 13.5702 1032 104.044 58.686 461.067
964 0 78.0417 13.9541 1089 104.081 59.0202 460.374
965 0 81.1991 13.5346 1099 106.065 58.1583 456.507
966 0 81.1945 12.3161 1000 110.109 58.247 456.949
967 0 87.0966 13.1463 1145 107.217 58.6707 457.065
968 0 88.1778 13.3367 1176 107.423 58.2449 454.582
969 0 93.343 13.4879 1259 106.034 58.6847 453.177
970 0 95.1218 13.8454 1317 106.581 58.2058 451.586
971 0 96.2025 13.2845 1278 109.531 58.0704 450.471
972 0 96.1146 12.4123 1193 101.248 58.8265 455.933
973 0 99.1096 11.8656 1176 104.277 59.0757 449.005
974 0 102.107 11.6643 1191 102.708 59.1671 453.097
975 0 104.227 11.8876 1239 102.607 57.9976 450.461
976 0 111.193 11.4665 1275 100.431 58.7137 442.626
977 0 116.206 13.0372 1515 102.139 58.4785 437.583
978 0 121.253 13.3605 1620 105.328 57.7025 436.104
979 0 123.268 12.7852 1576 106.841 58.2024 435.692
980 0 128.348 13.027 1672 105.254 57.1423 431.164
981 0 133.184 12.3513 1645 107.013 58.279 432.689
982 0 137.238 13.1815 1809 105.115 57.4671 430.891
983 1 76.1989 11.8243 901 100.158 58.7791 462.127
984 0 79.1522 12.7602 1010 97.5614 57.5099 461.494
985 0 81.0763 11.9147 966 96.8478 56.7681 459.57
986 0 84.0818 12.7971 1076 96.526 58.0743 457.64
987 0 85.2065 10.8325 923 100.582 58.3239 456.822
988 0 90.2259 11.3825 1027 98.8832 58.1665 457.094
989 0 95.1458 11.1513 1061 99.0245 59.0236 453.262
990 1 55.2033 10.7421 593 106.31 58.0152 470.895
991 0 58.059 10.7994 627 103.279 56.9394 472.987
992 0 59.1675 11.3576 672 99.6414 57.6161 472.577
993 0 62.1533 12.1956 758 98.6926 57.4894 468.036
994 0 64.0928 11.7642 754 97.1684 57.4735 468.719
995 0 66.1238 12.2497 810 96.6296 57.7111 466.844
996 0 67.0879 12.5805 844 97.5249 57.8945 465.404
997 0 69.0998 12.9957 898 96.196 57.9733 466.5
998 0 71.1082 13.1068 932 96.3412 57.8863 462.033
999 0 75.2899 12.9234 973 95.5519 57.4101 462.519
1000 0 76.1334 12.8853 981 98.0449 58.3089 461.254
1001 0 82.146 12.8917 1059 104.67 57.7337 458.797
1002 0 86.1801 14.1448 1219 102.554 58.087 456.824
1003 0 86.1825 12.3691 1066 106.644 57.6792 454.876
1004 0 91.1805 12.9085 1177 99.4902 59.1351 454.777
1005 0 98.1514 11.849 1163 100.313 58.7506 452.981
1006 0 95.1268 10.7856 1026 101.7 58.8577 450.132
1007 0 99.2106 11.6217 1153 100.622 58.9688 450.914
1008 1 52.191 9.21615 481 95.5593 58.815 474.087
1009 0 55.2508 10.8596 600 96.715 59.075 471.112
1010 0 56.2656 11.2502 633 100.403 59.0948 464.773
1011 0 57.1096 12.0295 687 102.726 59.8588 469.054
1012 0 64.1726 10.9081 700 106.701 59.1514 468.871
1013 0 63.4277 12.0925 767 106.572 59.1265 465.099
1014 0 68.1761 11.6756 796 104.704 58.8819 465.162
1015 0 66.2405 10.5676 700 110.353 59.0186 464.157
1016 0 68.1157 11.7594 801 108.169 59.3583 465.462
1017 0 69.2031 11.7914 816 109.665 59.5282 463.505
1018 0 71.2536 12.3503 880 108.059 59.8557 462.657
1019 0 75.1769 12.3575 929 105.406 59.5242 462.995
1020 0 75.0952 11.9848 900 107.104 59.7278 461.546
1021 0 77.1362 12.1733 939 106.948 60.1299 459.985
1022 0 81.1266 13.1523 1067 104.027 59.701 458.231
1023 0 83.1232 11.5491 960 106.479 59.5208 458.909
1024 0 87.1262 12.4991 1089 102.97 59.0257 456.452
1025 0 88.2336 11.8549 1046 106.076 59.2428 454.015
1026 0 91.1686 11.4074 1040 107.409 58.6587 454.703
1027 0 96.232 11.9399 1149 99.5326 58.7032 451.139
1028 0 97.2348 12.0122 1168 101.07 59.0009 448.319
1029 0 98.1351 10.669 1047 104.534 59.3238 447.015
1030 1 54.111 9.20331 498 94.0663 60.4076 471.703
1031 0 56.1526 12.5195 703 91.1209 60.0939 470.212
1032 0 57.0343 13.2903 758 92.8997 59.277 471.606
1033 0 56.0522 12.0424 675 97.5704 60.4978 468.79
1034 0 58.1564 11.0392 642 95.6044 59.919 468.718
1035 0 63.0823 11.6673 736 95.0584 60.4062 467.799
1036 0 63.0824 11.6673 736 95.7296 60.7663 466.296
1037 0 65.1979 11.7488 766 97.0405 60.1501 466.582
1038 0 66.1549 12.637 836 96.4737 59.7679 463.803
1039 0 69.0876 12.144 839 97.7342 59.2646 462.852
1040 0 70.0671 12.3168 863 97.8772 59.6246 464.387
1041 0 76.1353 12.4384 947 96.793 59.6315 464.004
1042 0 77.2312 13.3754 1033 96.3524 59.423 459.461
1043 0 78.2231 11.5823 906 101.398 59.3389 461.076
1044 0 83.1226 12.7041 1056 109.329 59.5123 459.299
1045 0 83.1687 12.1079 1007 111.548 60.144 458.46
1046 0 85.3216 11.1461 951 108.289 60.3849 453.392
1047 0 90.182 12.508 1128 104.741 59.8626 453.446
1048 0 93.2585 12.5779 1173 105.086 59.3487 452.518
1049 0 94.1816 11.2442 1059 106.8 59.3277 453.87
1050 0 99.1603 12.6563 1255 107.579 58.8359 451.105
1051 0 99.2107 12.5793 1248 109.533 58.4535 448.061
1052 0 103.248 12.4845 1289 111.799 57.6245 442.313
1053 0 108.246 13.6633 1479 106.003 58.094 443.012
1054 0 109.223 11.5818 1265 112.36 58.8292 439.685
1055 0 116.184 13.754 1598 104.856 58.5025 437.377
1056 1 59.1757 11.6433 689 99.5414 59.4296 468.843
1057 0 61.0884 12.8339 784 97.8048 59.1365 465.501
1058 0 61.148 11.1696 683 97.4583 59.325 468.152
1059 0 67.0769 11.8968 798 105.238 59.8697 466.432
1060 0 69.1153 12.1391 839 104.36 59.4923 463.979
1061 0 71.0522 11.4423 813 106.068 59.6482 462.899
1062 0 73.0855 12.1228 886 103.376 58.8612 463.327
1063 0 75.0343 11.5147 864 104.159 58.6065 461.103
1064 0 76.1181 10.6282 809 98.4524 59.1063 459.025
1065 0 79.0937 12.4409 984 95.0904 59.5681 456.124
1066 0 81.1702 12.0611 979 96.5792 59.2319 457.618
1067 0 83.0643 12.5084 1039 97.6333 59.1963 455.243
1068 0 87.0727 11.5765 1008 99.5635 58.9524 455.537
1069 0 90.2706 12.1523 1097 99.6381 59.6381 453.092
1070 0 94.0834 13.0735 1230 102.1 59.7707 453.95
1071 0 97.1223 13.9 1350 100.061 59.2215 452.54
1072 0 98.1824 13.0981 1286 103.425 59.3173 449.348
1073 0 99.1804 13.2587 1315 105.091 59.0517 442.459
1074 0 103.192 12.656 1306 106.891 58.7779 444.593
1075 0 108.222 12.9919 1406 107.339 58.7802 439.292
1076 0 111.281 13.9377 1551 105.382 58.8433 438.469
1077 0 114.267 13.2322 1512 106.694 58.7136 436.449
1078 0 120.532 13.7557 1658 105.806 59.8396 433.669
1079 1 65.1578 11.4031 743 105.887 58.8412 461.777
1080 0 67.0659 12.018 806 105.579 59.8958 463.458
1081 0 70.0647 11.8605 831 96.7521 59.9483 462.308
1082 0 73.0967 11.902 870 96.3368 59.7759 460.144
1083 0 76.091 11.9199 907 98.4157 59.8412 460.805
1084 0 79.1031 11.7442 929 98.4887 60.3692 459.772
1085 0 82.0746 13.0857 1074 97.149 60.0689 456.958
1086 0 84.0827 12.8564 1081 98.6105 60.8779 454.66
1087 0 87.0933 12.0675 1051 100.699 60.1265 454.139
1088 0 91.0656 13.3201 1213 109.461 60.7815 449.751
1089 0 95.1656 13.755 1309 107.718 60.6096 449.491
1090 0 99.1662 12.9379 1283 109.234 60.5105 448.356
1091 0 100.146 12.1622 1218 110.731 59.8621 446.513
1092 1 51.1831 10.4136 533 104.03 61.0582 471.544
1093 0 55.07 12.7111 700 99.3971 59.7257 470.04
1094 0 56.0579 11.4881 644 106.963 60.1568 468.002
1095 0 58.0155 12.0485 699 97.432 60.6967 470.959
1096 0 58.065 11.5732 672 100.286 60.2604 468.783
1097 0 60.0548 11.2397 675 101.681 60.2993 467.724
1098 0 60.1456 11.655 701 101.802 60.7361 468.964
1099 0 62.0276 11.3659 705 102.356 60.3021 465.962
1100 0 66.1096 12.6608 837 99.4516 60.4695 465.624
1101 0 68.1004 11.718 798 101.086 60.4436 465.815
1102 0 70.0826 12.4995 876 99.5776 60.4075 464.933
1103 0 73.042 13.1842 963 98.3967 60.3178 462.26
1104 0 74.0875 12.0938 896 102.105 59.7902 461.762
1105 0 74.0458 10.8176 801 105.634 60.0574 461.946
1106 0 78.0483 12.441 971 103.654 60.1267 459.143
1107 0 82.069 12.2092 1002 103.958 60.3124 458.216
1108 0 84.1252 12.4457 1047 105.462 60.4642 456.387
1109 0 87.0856 12.5279 1091 105.948 60.6856 455.545
1110 0 88.1033 12.4626 1098 108.04 60.3679 453.279
1111 0 92.0693 13.0119 1198 106.581 60.7947 452.424
1112 0 95.0492 13.109 1246 108.194 60.577 450.395
1113 0 101.09 14.403 1456 111.241 60.2864 447.51
1114 0 105.072 13.6192 1431 113.692 60.0936 444.883
1115 0 110.2 14.3557 1582 111.611 60.3831 443.355
1116 0 112.058 13.8768 1555 113.637 59.7987 440.332
1117 0 117.228 12.4714 1462 111.357 59.7182 438.471
1118 0 122.239 13.1382 1606 111.669 60.363 439.474
1119 1 63.2144 10.9311 691 102.616 59.9826 468.864
1120 0 66.0398 11.8262 781 102.622 60.2843 465.652
1121 0 67.0263 11.9058 798 102.972 60.2757 463.531
1122 0 71.1372 12.8625 915 100.237 60.7585 464.032
1123 0 73.069 11.3317 828 103.572 60.4167 461.533
1124 0 77.1125 12.6568 976 101.018 59.8678 459.44
1125 0 81.0653 12.8168 1039 108.506 59.9952 457.598
1126 0 81.1256 12.7087 1031 109.162 59.8875 454.374
1127 0 86.1375 12.4684 1074 108.305 59.6201 454.351
1128 0 89.1824 13.0407 1163 106.138 59.4265 453.128
1129 0 92.1583 12.4243 1145 107.582 59.7328 449.87
1130 0 93.1301 11.7363 1093 109.395 60.6624 450.315
1131 0 93.2014 12.2208 1139 108.093 60.5531 451.896
1132 0 102.21 13.306 1360 105.495 60.5125 446.602
1133 0 105.292 11.8718 1250 108.859 60.4552 445.108
1134 0 109.366 11.8867 1300 109.332 60.0254 442.846
1135 0 112.142 11.3249 1270 110.695 60.3118 444.011
1136 0 119.229 13.1176 1564 106.964 60.3075 439.785
1137 0 121.21 12.7878 1550 108.475 60.1368 438.461
1138 0 125.309 12.6966 1591 107.976 60.2294 436.84
1139 1 65.0645 11.2504 732 103.563 59.9413 463.986
1140 0 66.1188 11.6608 771 102.442 61.0065 466.147
1141 0 71.1692 12.1963 868 101.432 60.3721 463.544
1142 0 73.121 11.5562 845 102.599 60.9964 462.957
1143 0 75.1981 11.4897 864 103.372 60.7407 460.589
1144 0 79.0895 12.4037 981 101.078 60.1855 460.01
1145 0 83.1204 11.2006 931 105.48 59.4157 455.502
1146 0 84.2432 12.5826 1060 102.159 59.8538 454.752
1147 0 87.0972 12.8707 1121 101.136 60.3113 455.551
1148 0 90.2571 12.3647 1116 102.17 60.1407 452.399
1149 0 91.1461 12.5403 1143 103.263 59.9563 447.409
1150 0 96.1864 12.9436 1245 102.206 59.7727 445.803
1151 0 101.172 13.2744 1343 100.571 60.3842 444.818
1152 0 102.179 14.1027 1441 99.3754 60.3963 443.155
1153 0 106.146 13.001 1380 101.452 60.1428 444.034
1154 1 55.1462 11.6236 641 99.6583 62.1357 469.788
1155 0 59.2461 12.4903 740 104.447 60.7514 465.774
1156 0 60.1128 11.5949 697 109.981 61.3989 466.931
1157 0 63.2046 12.863 813 99.7897 61.9164 468.002
1158 0 65.0836 13.8745 903 103.274 61.4097 465.328
1159 0 65.1164 13.5296 881 103.774 60.8558 463.666
1160 0 69.157 12.8114 886 103.916 60.3634 463.685
1161 0 71.1278 13.4547 957 102.995 61.4274 462.755
1162 0 74.2292 12.7578 947 102.193 60.2418 458.939
1163 0 78.3077 13.7407 1076 99.9108 60.8959 455.122
1164 0 78.3044 13.0389 1021 101.578 61.1097 453.175
1165 0 80.3863 13.2858 1068 101.051 60.2828 452.392
1166 0 84.1325 11.9217 1003 103.77 60.7737 449.903
1167 0 88.1196 14.5598 1283 97.5019 60.933 448.361
1168 0 92.254 14.265 1316 96.9271 60.9217 448.297
1169 0 92.242 12.3588 1140 99.9474 61.3061 446.792
1170 0 95.1593 11.9064 1133 100.136 60.7343 445.02
1171 1 51.132 11.1476 570 92.6825 60.5807 469.332
1172 0 52.0878 12.1718 634 91.2965 59.9653 466.852
1173 0 54.0424 12.0646 652 89.6012 60.4847 468.787
1174 0 55.1669 11.4018 629 91.9921 60.6089 467.747
1175 0 57.1631 11.7208 670 93.2567 61.8507 471.44
1176 0 59.0607 12.7835 755 90.7404 61.1629 469.958
1177 0 61.1188 13.122 802 96.9002 60.9638 467.656
1178 0 64.108 13.8672 889 94.6085 61.4567 468.934
1179 0 64.0766 13.9521 894 95.1812 60.6902 462.275
1180 0 68.1262 13.2401 902 94.5543 60.5876 464.769
1181 0 67.0898 13.385 898 95.9488 61.1793 464.687
1182 0 69.101 12.5324 866 97.0254 60.8822 462.331
1183 0 73.1345 13.4136 981 94.6147 60.475 459.08
1184 0 74.1168 13.0065 964 96.2946 60.8859 457.4
1185 0 75.4513 12.5776 949 97.6143 61.1043 457.436
1186 0 78.126 13.171 1029 96.1477 60.2255 458.606
1187 0 82.1426 13.6957 1125 95.4898 61.0036 455.74
1188 0 85.1805 13.9586 1189 94.4542 60.8991 456.648
1189 0 87.3081 13.1374 1147 96.1465 60.2868 454.932
1190 0 85.1562 12.2716 1045 100.033 60.1263 451.487
1191 0 91.1759 13.2601 1209 97.2366 60.3838 451.809
1192 0 94.2833 13.5231 1275 96.8996 60.6533 451.842
1193 0 96.2414 12.8947 1241 98.8646 60.033 449.469
1194 0 99.2055 13.2452 1314 99.5571 60.2222 446.072
1195 0 103.109 13.8106 1424 97.8574 59.5112 446.322
1196 0 105.244 13.692 1441 99.4941 60.1749 441.941
1197 0 112.097 13.8809 1556 98.2789 59.9627 443.781
1198 0 113.288 13.9556 1581 99.1942 59.8975 439.056
1199 0 117.143 14.1878 1662 99.5373 60.2738 437.614
1200 0 121.23 14.1054 1710 99.3462 59.7275 436.106
1201 1 57.0713 11.9149 680 94.5574 60.3015 468.775
1202 0 61.2338 12.0195 736 93.3505 60.2323 467.787
1203 0 60.1296 11.708 704 96.7784 61.0028 465.982
1204 0 65.0404 13.1611 856 95.1308 60.5187 468.357
1205 0 67.0833 12.1193 813 97.5055 59.9754 466.105
1206 0 68.1212 13.153 896 96.2087 60.6406 465.708
1207 0 71.0367 12.0783 858 98.1795 61.1818 465.639
1208 0 73.0531 13.2506 968 97.9401 61.5486 464.058
1209 0 77.0632 13.6122 1049 97.8704 61.6349 461.159
1210 0 77.1859 12.1913 941 101.889 61.7216 459.98
1211 0 82.0884 13.0956 1075 99.2326 61.2893 459.012
1212 0 84.1314 13.7285 1155 99.4519 60.5411 456.744
1213 0 86.0725 12.9077 1111 102.265 61.1062 453.763
1214 0 89.1728 13.0533 1164 103.034 61.6125 453.268
1215 0 93.2529 13.2328 1234 102.933 61.0527 452.165
1216 0 96.1151 14.0353 1349 101.598 60.8414 451.472
1217 0 99.1134 13.9739 1385 102.588 61.0094 448.204
1218 0 102.217 13.6768 1398 103.82 60.5801 447.066
1219 0 106.245 13.883 1475 103.348 60.4597 448.194
1220 0 108.234 14.0344 1519 105.031 61.0691 445.957
1221 0 113.212 13.9473 1579 105.422 60.1697 446.543
1222 1 57.0507 11.3408 647 105.714 61.187 470.929
1223 0 60.1681 13.429 808 103.286 60.7624 469.488
1224 0 62.1565 12.6133 784 105.879 61.0077 468.37
1225 0 64.0564 13.0198 834 105.686 61.1523 469.357
1226 0 65.0642 12.3724 805 108.483 60.6671 465.272
1227 0 67.1634 12.6259 848 106.987 60.9092 465.913
1228 0 70.1261 13.9035 975 105.213 60.9497 462.722
1229 0 73.0419 13.7182 1002 105.316 60.8792 462.445
1230 0 76.1049 13.7967 1050 105.19 61.1619 461.503
1231 0 77.1287 13.7951 1064 105.989 61.2838 459.244
1232 0 80.1321 12.9287 1036 108.268 60.8234 457.458
1233 0 84.0898 13.6402 1147 106.539 60.2616 456.5
1234 0 85.1768 12.9848 1106 109.282 60.8192 454.272
1235 0 86.1567 13.046 1124 109.56 60.7669 452.454
1236 0 91.2058 12.7185 1160 110.034 61.2345 452.984
1237 0 93.175 13.6839 1275 110.2 62.2612 448.786
1238 0 97.1242 13.2511 1287 109.893 61.7568 447.272
1239 0 99.2999 12.7392 1265 112.456 62.2625 445.379
1240 0 102.277 13.9327 1425 110.214 61.8344 442.994
1241 0 105.286 13.4586 1417 111.627 61.0642 442.261
1242 0 108.268 14.1408 1531 110.57 61.0222 440.778
1243 0 111.356 12.8147 1427 113.23 60.8535 441.002
1244 0 114.186 14.3713 1641 109.47 60.4223 438.021
1245 0 119.237 13.7877 1644 111.707 60.7245 435.254
1246 0 124.23 13.0162 1617 113.17 60.7471 434.566
1247 0 129.224 13.2251 1709 113.471 61.0486 433.939
1248 1 68.245 12.3525 843 110.733 60.6216 462.62
1249 0 67.3226 11.8385 797 112.263 60.1706 461.7
1250 0 72.3368 13.9625 1010 106.827 60.0743 458.702
1251 0 75.2599 13.0083 979 111.868 59.81 456.646
1252 0 76.2001 13.3202 1015 113.736 59.8365 453.862
1253 0 79.2734 13.7499 1090 111.921 60.0862 454.161
1254 0 78.1643 12.9087 1009 114.857 59.8761 452.5
1255 0 83.2354 14.7053 1224 109.32 60.2124 452.414
1256 0 85.1759 12.8557 1095 113.395 60.1205 450.298
1257 0 86.2284 12.9772 1119 114.29 60.4468 449.669
1258 0 89.2747 13.4529 1201 111.915 60.1607 448.744
1259 0 91.2252 13.9654 1274 109.875 59.927 448.167
1260 0 92.1565 12.6524 1166 114.33 60.1209 444.744
1261 0 96.2278 13.6135 1310 110.566 60.7229 444.926
1262 0 99.1389 13.7585 1364 110.294 61.1202 444.329
1263 0 101.181 13.2831 1344 111.07 60.6295 442.915
1264 0 100.139 12.3828 1240 114.051 61.0202 441.21
1265 0 105.15 13.7423 1445 110.064 60.5633 440.832
1266 0 108.196 12.7547 1380 110.515 60.3572 439.221
1267 0 111.193 13.1752 1465 109.545 60.0382 435.765
1268 0 115.178 13.2143 1522 109.817 60.3154 434.325
1269 0 117.152 12.4454 1458 112.377 60.9877 427.794
1270 0 121.172 13.3116 1613 109.474 60.7241 428.126
1271 0 126.228 12.8101 1617 110.741 61.2999 422.319
1272 1 68.0422 10.4935 714 110.548 61.3711 453.015
1273 0 69.0396 11.1965 773 110.642 61.9625 449.242
1274 0 72.0974 11.9422 861 105.843 61.0372 450.204
1275 0 78.0726 11.9376 932 104.841 60.9453 455.286
1276 0 78.0621 12.7078 992 103.951 61.5927 453.401
1277 0 81.0741 11.4833 931 105.604 61.5456 450.967
1278 0 83.1022 11.6242 966 106.303 61.5124 447.067
1279 0 89.1111 10.2793 916 106.112 60.4236 449.717
1280 0 85.1354 11.9222 1015 105.398 60.7547 443.05
1281 0 89.0711 12.3272 1098 103.337 60.2022 445.321
1282 0 94.0521 11.4086 1073 104.489 60.6375 442.375
1283 0 94.11 10.424 981 107.269 60.3445 439.367
1284 0 101.171 12.0292 1217 102.348 61.1175 439.439
1285 0 99.1893 11.7553 1166 104.406 61.9931 436.721
1286 0 104.207 10.4216 1086 105.595 61.2827 436.574
1287 0 108.134 10.9217 1181 104.211 61.4649 433.544
1288 0 114.114 11.436 1305 103.59 61.8797 430.316
1289 0 118.115 12.1831 1439 100.477 61.9229 431.833
1290 0 115.163 10.1161 1165 107.687 61.6069 424.973
1291 0 123.159 11.9195 1468 101.876 61.7316 428.626
1292 1 75.1917 10.4134 783 94.3729 61.3831 460.681
1293 0 79.1154 11.0851 877 101.751 62.7355 459.682
1294 0 77.102 11.5691 892 96.8072 63.1031 461.603
1295 0 80.1355 12.0421 965 97.5813 63.2756 458.599
1296 0 81.1006 12.281 996 97.5934 63.3384 460.003
1297 0 86.1075 12.2405 1054 98.1195 63.1101 457.047
1298 0 86.1358 11.3542 978 101.803 63.1176 453.999
1299 0 89.2059 12.1292 1082 100.091 62.9214 454.081
1300 0 91.1261 12.0822 1101 100.304 62.3124 454.101
1301 0 96.0994 12.8617 1236 99.2063 61.9968 451.574
1302 0 99.1562 13.2518 1314 98.3569 62.4079 453.893
1303 0 98.1273 11.3322 1112 102.734 62.3345 453.473
1304 0 101.107 12.0071 1214 102.491 62.3402 450.395
1305 0 106.18 13.4583 1429 100.41 62.4815 444.668
1306 0 109.1 12.3831 1351 102.02 62.7876 446.218
1307 0 110.263 11.9078 1313 104.43 62.4356 444.762
1308 0 114.247 12.0178 1373 104.125 62.3634 443.315
1309 0 117.169 12.7167 1490 102.256 63.0242 441.631
1310 0 122.168 13.3832 1635 100.528 62.2171 438.016
1311 0 126.174 12.9662 1636 101.77 61.8356 435.881
1312 0 129.135 12.3514 1595 102.599 62.1944 434.364
1313 0 133.194 11.2843 1503 104.251 61.3353 431.59
1314 0 140.168 13.548 1899 99.2559 61.0416 428.797
1315 0 139.297 12.5415 1747 99.4699 61.0693 427.963
1316 0 140.317 10.8326 1520 103.591 61.0914 426.574
1317 0 146.185 11.8207 1728 102.025 61.0197 424.257
1318 0 150.247 12.0335 1808 100.798 61.2699 428.117
1319 0 157.261 12.864 2023 100.176 61.3633 421.449
1320 0 159.3 12.5173 1994 102.462 60.8375 418.014
1321 0 163.254 11.0686 1807 105.743 60.6906 416.455
1322 0 170.268 12.1338 2066 104.303 60.1563 412.914
1323 0 171.21 10.087 1727 108 60.4308 413.769
1324 0 179.324 10.824 1941 104.957 59.8722 413.302
1325 1 58.1909 11.995 698 91.1877 61.1877 472.142
1326 0 59.2123 12.0921 716 89.824 60.6508 472.177
1327 0 58.1332 10.9748 638 91.547 61.7429 471.697
1328 0 62.1596 12.3392 767 88.7549 60.9648 470.37
1329 0 62.1932 11.2392 699 91.4506 61.1216 469.21
1330 0 64.0611 11.2705 722 91.5374 60.7465 470.181
1331 0 63.1002 10.8399 684 93.3684 61.2149 467.743
1332 0 69.1206 11.328 783 90.4598 59.9898 467.238
1333 0 69.0701 10.902 753 91.9522 60.2762 467.938
1334 0 70.0933 11.2136 786 91.2786 60 466.98
1335 0 73.1334 11.3628 831 90.3502 60.4693 464.345
1336 0 75.149 13.2537 996 87.0402 60.5462 465.497
1337 0 76.0573 11.9515 909 91.1353 59.582 464.299
1338 0 75.115 10.7036 804 94.9577 60.046 462.404
1339 0 81.1712 11.4203 927 92.972 58.6138 461.215
1340 0 85.1545 11.4968 979 105.302 59.5312 458.425
1341 1 165.227 12.8611 2125 103.1 59.536 424.92
1342 0 168.279 12.3545 2079 105.387 58.7311 421.282
1343 1 307.517 13.2578 4077 107.421 58.1472 355.661
1344 1 52.1081 10.1328 528 99.5 58.6458 479.21
1345 0 52.2068 11.148 582 102.196 58.311 472.522
1346 0 53.2653 10.4383 556 95.5486 58.8561 470.831
1347 0 52.1365 9.60939 501 98.517 59.5968 477.91
1348 0 55.1034 11.3968 628 95.8949 59.6178 476.438
1349 0 56.151 10.8992 612 97.1667 59.1225 474.482
1350 0 59.0939 10.7287 634 97.5079 58.8754 473.3
1351 0 59.0936 10.9657 648 98.1481 58.6188 473.671
1352 0 61.0487 11.155 681 97.9369 58.9618 472.796
1353 0 63.0229 13.0746 824 95.1881 59.3277 470.439
1354 0 65.1195 11.5173 750 97.4 59.2147 471.04
1355 0 76.0905 10.3955 791 103.47 58.6094 471.949
1356 0 75.0401 11.3673 853 103.477 58.6694 468.346
1357 0 73.1751 10.837 793 104.491 58.3682 466.31
1358 0 74.2864 10.8768 808 100.282 58.3106 459.755
1359 0 75.0587 9.25942 695 104.165 58.7942 461.704
1360 0 79.1683 11.7598 931 100.788 57.8711 462.29
1361 0 81.2619 10.8538 882 101.43 57.3651 460.862
1362 0 81.2284 11.7447 954 101.418 58.1782 458.355
1363 0 85.1336 11.1589 950 101.243 58.4768 458.717
1364 0 91.3026 11.095 1013 101.944 58.3465 454.953
1365 0 92.1047 11.6064 1069 100.959 57.5772 455.046
1366 0 93.3756 12.1766 1137 99.9516 57.4697 454.537
1367 0 96.3174 11.3998 1098 102.024 57.3534 452.922
1368 1 47.0879 10.2999 485 96.3485 57.433 476.649
1369 0 49.2701 11.2847 556 95.2572 57.0324 474.745
1370 0 49.1172 11.3809 559 94.4186 58.3596 475.923
1371 0 51.1952 11.1534 571 93.937 56.7968 473.061
1372 0 52.0269 11.3018 588 95.1837 56.7381 477.31
1373 0 54.0835 11.6117 628 94.8296 56.7436 477.107
1374 0 54.0505 12.2848 664 93.3223 56.9081 477.529
1375 0 56.0561 12.3448 692 93.2283 57.2861 477.202
1376 0 57.0775 12.9298 738 94.313 57.9797 473.745
1377 0 59.0622 11.2932 667 95.8996 57.4888 474.496
1378 0 61.0266 12.1259 740 94.1486 57.7662 474.374
1379 0 64.122 11.7744 755 95.5232 57.9907 472.722
1380 0 64.0707 11.9556 766 96.3747 57.4073 470.077
1381 0 68.0414 12.801 871 94.132 56.9908 469.813
1382 0 68.0424 11.3312 771 97.9767 56.4241 468.881
1383 0 71.0357 13.3454 948 95.2046 57.0665 465.696
1384 0 72.0363 12.0495 868 97.7615 56.6717 468.268
1385 0 74.1532 12.7709 947 97.3115 57.0876 465.663
1386 0 76.1482 12.2787 935 99.4513 58.2545 464.472
1387 0 79.1142 12.5515 993 99.6989 57.6042 462.941
1388 0 83.1325 12.4981 1039 100.186 57.8056 463.708
1389 0 85.0608 13.0965 1114 100.282 58.2038 460.547
1390 0 87.0617 12.3935 1079 101.691 56.722 460.906
1391 0 90.0997 13.1188 1182 101.343 57.8934 458.27
1392 0 92.1415 13.6855 1261 100.998 57.2276 458.077
1393 0 96.1272 13.3573 1284 101.656 56.4034 456.382
1394 0 98.1224 14.3087 1404 100.421 57.4957 453.931
1395 0 101.142 13.7727 1393 100.953 57.4106 456.458
1396 0 102.084 13.6064 1389 102.885 57.6141 453.644
1397 0 106.193 13.645 1449 101.939 57.2905 451.787
1398 0 107.093 12.5965 1349 104.833 57.7124 450.165
1399 0 113.074 13.0091 1471 103.538 56.6621 448.256
1400 0 114.211 12.6958 1450 105.161 57.3021 443.475
1401 0 121.197 13.474 1633 102.585 56.9014 442.532
1402 0 125.192 14.1063 1766 101.567 57.2356 439.521
1403 1 72.1882 11.2345 811 100.419 57.2084 466.005
1404 0 76.247 11.8693 905 99.1028 57.5459 466.67
1405 0 77.1824 12.3992 957 98.5455 57.6813 465.596
1406 0 79.0813 11.4945 909 101.856 57.2211 464.931
1407 0 82.1261 12.2129 1003 100.718 56.8734 462.784
1408 0 85.1551 12.5888 1072 100.007 57.1856 462.819
1409 0 87.1449 12.2899 1071 103.387 56.6377 459.11
1410 0 89.1365 11.6002 1034 106.538 57.0967 459.168
1411 0 93.0389 12.3927 1153 104.976 56.4467 458.533
1412 0 94.3752 12.3549 1166 105.285 57.2196 456.222
1413 0 96.2904 11.5588 1113 107.239 56.9955 454.115
1414 0 99.2537 13.4504 1335 103.228 57.2697 453.344
1415 0 103.177 12.9777 1339 104.316 56.5997 451.267
1416 0 104.217 12.9154 1346 102.776 56.8886 448.629
1417 0 108.304 11.8925 1288 105.347 57.3548 446.075
1418 0 109.354 11.9337 1305 106.204 57.1533 443.952
1419 1 63.303 10.2839 651 103.283 57.6943 470.161
1420 0 65.1581 11.3877 742 101.243 56.1658 466.23
1421 0 68.049 12.0942 823 104.352 56.6926 470.198
1422 0 71.1693 12.8988 918 112.602 56.2081 464.134
1423 0 73.1981 12.9375 947 112.898 56.2629 462.947
1424 0 74.221 13.1634 977 111.426 57.0102 462.945
1425 0 76.1602 11.9091 907 113.977 56.3451 463.617
1426 0 76.1335 12.8064 975 113.097 55.9938 461.266
1427 0 79.2073 13.9507 1105 107.645 56.429 463.516
1428 0 81.0402 12.3519 1001 112.653 57.2717 461.681
1429 0 82.2073 12.7361 1047 115.773 55.6695 454.703
1430 0 84.0831 12.892 1084 115.12 56.7472 457.153
1431 0 86.1073 14.9581 1288 110.412 56.4674 456.419
1432 0 88.1853 13.1655 1161 114.926 56.6176 454.239
1433 0 92.183 14.1241 1302 111.71 56.2942 453.916
1434 0 92.148 12.4148 1144 116.755 56.3636 449.823
1435 0 95.1197 12.9731 1234 115.688 56.2261 447.536
1436 0 99.1109 14.6503 1452 111.277 56.0234 447.658
1437 0 102.122 12.5046 1277 115.733 56.4785 447.489
1438 1 55.1034 9.65458 532 112.987 55.985 470.889
1439 0 57.0773 12.3166 703 104.933 56.1408 472.038
1440 0 58.0651 10.4193 605 109.091 56.076 471.605
1441 0 62.0646 12.9059 801 108.83 56.824 471.358
1442 0 64.0443 12.3508 791 109.551 56.5006 472.224
1443 0 65.0605 13.9562 908 105.797 56.3767 469.411
1444 0 67.0601 12.8243 860 105.963 56.6128 468.262
1445 0 69.1622 13.2876 919 102.187 56.9782 468.067
1446 0 71.097 13.7981 981 101.142 56.4088 468.653
1447 0 75.0839 14.6103 1097 99.6281 56.2097 466.2
1448 0 73.0699 13.1107 958 104.805 56.1754 462.778
1449 0 78.0872 13.3313 1041 103.477 57.3785 464.873
1450 0 82.0833 14.1807 1164 101.399 55.994 462.462
1451 0 84.1158 14.48 1218 101.048 56.7603 459.475
1452 0 84.2056 13.8114 1163 103.073 57.2304 460.819
1453 0 87.2636 13.7973 1204 103.986 57.4169 457.296
1454 0 87.2491 12.9743 1132 106.784 57.5451 456.274
1455 0 92.2193 13.7824 1271 103.065 57.535 455.614
1456 0 94.2364 13.498 1272 104.05 57.2154 453.785
1457 0 96.1865 13.1307 1263 105.981 57.5693 449.764
1458 0 95.1068 13.1326 1249 106.709 56.8383 447.657
1459 0 99.1229 13.7102 1359 104.285 56.8234 448.52
1460 0 104.125 14.3865 1498 102.927 57.0955 445.95
1461 0 108.203 13.8813 1502 102.784 56.2723 444.453
1462 1 62.0212 10.8511 673 99.9227 56.4889 470.27
1463 0 64.0502 12.5839 806 97.5931 56.6935 465.816
1464 0 63.0141 10.6643 672 102.265 56.9152 465.668
1465 0 67.037 12.4409 834 97.4784 56.5755 469.371
1466 0 69.0482 12.8316 886 97.0632 57.2438 469.054
1467 0 72.0616 12.9195 931 96.6208 57.0086 468.439
1468 0 75.1758 13.9141 1046 94.7275 57.0182 467.216
1469 0 75.0527 12.298 923 99.0195 56.9707 465.944
1470 0 79.1036 12.983 1027 97.2863 56.7829 463.216
1471 0 81.0911 13.5033 1095 97.2904 57.1114 461.757
1472 0 83.0672 11.1356 925 100.651 57.4076 462.88
1473 0 88.14 12.7638 1125 97.2187 57.992 459.666
1474 0 91.0681 12.2875 1119 97.1671 57.3226 459.643
1475 0 93.0878 13.3637 1244 96.7347 57.7846 454.816
1476 0 94.2064 11.6022 1093 99.6825 58.0403 454.052
1477 0 97.103 13.1922 1281 95.943 56.8767 452.674
1478 0 103.16 12.689 1309 96.3201 56.4041 449.989
1479 1 57.0378 12.5706 717 93.7699 57.3082 477.83
1480 0 57.0365 12.9391 738 93.6924 57.0664 475.724
1481 0 61.0691 12.5595 767 95.7484 56.7927 473.883
1482 0 62.1368 11.8931 739 97.184 56.571 472.922
1483 0 63.1125 12.8976 814 96.2555 56.8857 470.846
1484 0 65.0828 13.3676 870 94.6644 56.6713 471.922
1485 0 68.0353 12.2436 833 96.7395 56.1885 470.309
1486 0 68.1007 12.599 858 97.3473 56.521 469.765
1487 0 73.13 11.7462 859 98.5064 56.8917 467.796
1488 0 74.1594 11.4483 849 99.2874 56.4052 467.8
1489 0 76.2229 13.5786 1035 95.9188 56.0541 466.83
