time division length width area intensity CMx CMy
0 0 77.2295 11.7313 906 120.345 890.217 449.579
1 0 76.1043 10.5776 805 123.609 889.891 451.455
2 0 81.1569 11.4223 927 119.435 889.341 446.013
3 0 83.1386 11.3786 946 119.531 888.56 447.735
4 0 87.296 11.2262 980 119.702 889.081 447.136
5 0 91.1035 12.0303 1096 117.682 888.81 442.846
6 0 94.1802 11.5948 1092 119.035 889.071 444.158
7 1 53.0357 11.3509 602 114.229 890.271 464.374
8 0 53.144 10.8573 577 119.489 889.56 464.068
9 0 54.031 11.66 630 107.451 889.027 465.77
10 0 54.044 9.80683 530 112.183 888.317 465.666
11 0 58.0497 10.9217 634 108.934 889.967 463.771
12 0 58.0353 11.5447 670 108.224 891.551 462.061
13 0 62.0233 10.4316 647 108.726 889.961 463.597
14 0 64.0211 10.887 697 106.844 891.725 463.455
15 0 66.1038 11.5273 762 105.442 890.742 460.942
16 0 67.0304 10.6817 716 107.892 890.642 460.015
17 0 71.0407 9.45936 672 110.485 889.644 458.411
18 0 75.0557 12.0044 901 106.229 890.654 455.674
19 0 75.0312 10.1691 763 109.835 890.963 455.257
20 0 76.0883 10.409 792 109.962 891.197 452.665
21 0 82.0718 12.3794 1016 106.393 891.551 451.358
22 1 43.0204 10.158 437 108.442 891.082 469.483
23 0 45.0244 10.3944 468 107.184 891.18 469.229
24 0 47.0349 12.2037 574 104.322 892.244 467.774
25 0 50.0421 11.2106 561 105.137 892.13 467.579
26 0 48.0774 9.9839 480 108.79 891.752 468.212
27 0 51.0612 11.0652 565 106.242 892.021 466.632
28 0 52.053 11.2193 584 107.498 891.779 465.289
29 0 54.0323 12.8812 696 103.366 891.405 464.536
30 0 55.0745 12.6738 698 103.95 892.961 463.189
31 0 57.1388 13.4935 771 101.59 892.594 462.518
32 0 58.0352 12.2167 709 103.969 891.663 462.876
33 0 60.0242 11.3787 683 107.246 892.887 462.773
34 0 61.0402 12.3689 755 104.872 891.702 458.392
35 0 64.061 12.1915 781 103.607 891.626 458.557
36 0 65.1071 11.9035 775 104.631 891.51 457.775
37 0 66.1664 11.7733 779 106.175 890.906 455.365
38 0 71.0699 12.9872 923 102.06 890.702 452.501
39 0 72.0389 11.5632 833 106.203 890.815 452.612
40 0 72.0882 11.0975 800 107.951 890.265 454.34
41 0 74.0752 11.9473 885 106.318 891.858 454.679
42 0 76.0908 11.2629 857 109.222 891.295 450.463
43 0 82.0654 11.6492 956 107.053 891.659 450.275
44 0 82.1179 10.9355 898 109.388 891.842 448.413
45 0 86.0829 11.5819 997 108.357 891.057 445.871
46 0 88.1132 10.2595 904 113.211 891.228 446.43
47 0 92.1789 11.3475 1046 110.891 890.661 443.68
48 0 95.1172 10.4713 996 111.398 891.351 444.191
49 1 48.0315 11.5133 553 107.722 891.825 460.722
50 0 47.0162 10.9111 513 106.444 891.23 463.614
51 0 47.0139 10.8053 508 120.724 890.254 463.516
52 0 50.0893 10.7009 536 106.418 891.289 464.202
53 0 53.1616 11.1923 595 104.435 891.393 463.069
54 0 56.0651 10.9516 614 104.523 890.591 461.819
55 0 56.1323 10.3149 579 105.884 891.351 462.06
56 0 58.0881 11.5858 673 103.981 890.511 461.106
57 0 61.0727 11.8384 723 102.716 891.315 461.938
58 0 62.1518 11.5524 718 105.052 891.454 457.769
59 0 64.0786 11.798 756 104.102 891.054 458.159
60 0 64.0391 10.7122 686 107.05 890.638 456.656
61 0 69.1081 13.1967 912 102.296 890.557 455.254
62 0 71.0506 10.5136 747 106.276 891.489 455.913
63 0 72.0924 12.7614 920 104.702 891.526 451.357
64 0 74.0711 11.813 875 106.825 891.655 450.697
65 0 74.0534 12.1264 898 108.372 891.389 449.27
66 0 80.1255 12.0686 967 106.494 891.535 450.036
67 0 82.1383 12.6372 1038 107.394 890.718 447.352
68 0 85.0982 11.4339 973 109.419 890.944 447.336
69 0 88.0614 11.5942 1021 109.242 891.018 444.412
70 0 91.0819 11.6159 1058 108.956 890.345 444.519
71 0 96.1411 12.5441 1206 107.349 890.851 441.277
72 1 52.0612 10.0651 524 102.002 890.202 460.826
73 0 53.1374 12.6088 670 97.5254 890.515 460.864
74 0 56.0431 11.5447 647 101.122 890.909 458.696
75 0 56.0651 11.5045 645 102.53 891.078 458.918
76 0 61.0788 11.084 677 100.27 891.341 462.951
77 0 62.1012 12.4957 776 98.9459 892.111 460.693
78 0 65.0762 12.1396 790 100.623 891.161 459.604
79 0 67.0764 12.1205 813 100.956 891.546 458.86
80 0 68.0468 9.96372 678 105.416 891.451 458.653
81 0 71.0323 11.5018 817 104.293 891.286 456.302
82 0 75.1111 13.3402 1002 101.051 891.482 455.121
83 0 78.0816 13.1913 1030 102.607 891.963 453.95
84 0 79.0453 12.6763 1002 105.533 891.907 451.292
85 0 82.1154 11.9223 979 107.273 892.046 450.198
86 0 84.1233 12.2083 1027 107.514 891.694 449.105
87 0 87.0581 12.5893 1096 106.542 891.581 450.284
88 0 89.0874 12.1566 1083 110.404 891.892 446.991
89 0 92.1394 12.2315 1127 112.498 891.338 445.39
90 0 96.101 11.8937 1143 112.635 891.553 444.995
91 0 99.0981 13.0779 1296 111.791 891.478 439.85
92 0 104.149 12.7126 1324 111.602 892.097 439.965
93 0 107.289 13.5149 1450 109.994 891.392 439.073
94 0 109.123 12.0231 1312 114.826 891.594 437.95
95 1 61.066 11.4958 702 105.576 891.4 464.021
96 0 62.0968 11.6753 725 107.023 890.898 461.743
97 0 65.1237 12.3304 803 105.111 891.058 459.69
98 0 65.1125 10.5356 686 110.41 890.563 460.669
99 0 67.156 11.302 759 99.3584 891.424 459.615
100 0 70.1838 11.5554 811 100.062 891.017 456.35
101 0 74.1224 11.2651 835 99.6838 891.332 457.071
102 0 75.1022 9.85323 740 103.792 890.773 455.334
103 0 79.1224 11.2484 890 101.915 890.549 453.096
104 0 82.1844 11.462 942 103.556 890.13 452.361
105 0 87.1119 12.0075 1046 103.373 889.817 450.373
106 0 90.0951 11.7098 1055 105.902 889.677 448.425
107 0 93.1585 11.7112 1091 109.98 890.5 446.29
108 1 49.0985 10.2447 503 107.686 890.505 467.938
109 0 49.1307 11.8459 582 105.716 889.713 467.271
110 0 50.0192 10.9958 550 111.182 890.516 466.482
111 0 53.0329 11.6909 620 109.471 890.189 467.1
112 0 56.182 12.6019 708 107.616 889.785 466.629
113 0 57.1114 11.854 677 109.604 889.783 465.982
114 0 59.0997 11.3199 669 111.197 890.027 464.686
115 0 61.1226 12.5158 765 107.807 889.948 462.854
116 0 64.1891 12.5255 804 107.662 889.971 460.808
117 0 64.1089 12.432 797 109.324 890.084 459.803
118 0 67.1425 11.4235 767 111.819 889.557 459.601
119 0 68.2106 11.5378 787 111.958 889.746 458.846
120 0 71.1549 12.4376 885 111.322 890.163 457.618
121 0 75.1498 11.9095 895 113.106 890.951 456.58
122 0 77.1839 12.4378 960 112.458 890.92 454.211
123 0 80.1814 12.5091 1003 111.728 890.04 453.882
124 0 83.1611 12.4217 1033 112.761 889.714 450.536
125 0 86.1825 12.9725 1118 112.014 889.579 449.016
126 0 90.2129 12.3375 1113 112.856 890.002 448.349
127 0 93.1493 12.5068 1165 111.9 889.668 447.885
128 1 46.1156 9.64967 445 113.411 890.517 469.306
129 0 49.1397 12.088 594 110.352 889.657 465.36
130 0 49.0654 10.7204 526 116.789 890.966 450.207
131 0 52.0481 12.2195 636 113.102 890.346 438.033
132 0 52.0476 12.0467 627 114.155 891.722 442.258
133 0 53.0125 11.0729 587 117.08 890.39 449.652
134 0 55.0598 12.6953 699 112.123 890.474 462.817
135 0 57.0864 12.63 721 110.62 890.241 464.659
136 0 58.0822 12.3618 718 111.567 890.351 461.65
137 0 61.1445 12.3642 756 111.069 889.665 462.003
138 0 63.2226 13.3497 844 109.136 890.504 461.039
139 0 64.2262 12.5805 808 110.634 890.276 460.895
140 0 68.189 14.4892 988 107.662 890.62 458.353
141 0 66.0807 13.4532 889 113.008 890.54 457.016
142 0 70.0814 12.4997 876 115.307 890.185 457.551
143 0 71.0875 12.5901 895 116.088 890.328 456.215
144 0 74.09 13.7535 1019 113.373 890.675 453.654
145 0 78.1437 14.9596 1169 109.322 890.007 451.488
146 0 79.2889 13.1418 1042 114.829 889.954 450.228
147 1 42.1973 9.1949 388 118.423 890 467.644
148 0 44.1386 12.3928 547 110.614 889.943 468.516
149 0 44.2002 11.6742 516 115.895 890.155 466.756
150 0 46.2834 12.3802 573 114.229 890.417 467.208
151 0 45.1041 11.3294 511 119.141 889.115 465.35
152 0 48.1333 12.0706 581 115.73 889.688 467.136
153 0 50.0429 13.0288 652 114.114 890.773 464.745
154 0 52.1621 13.2088 689 113.176 890.374 466.289
155 0 53.2134 12.9291 688 114.246 889.869 463.546
156 0 55.1883 12.1221 669 116.238 889.613 462.954
157 0 57.0954 12.8732 735 114.654 890.665 463.879
158 0 58.164 12.1725 708 116.612 889.972 461.477
159 0 59.1019 12.5038 739 116.535 889.054 459.959
160 0 62.077 13.886 862 112.484 889.421 459.608
161 0 63.2491 13.2018 835 115.537 889.774 459.469
162 0 64.0799 12.3284 790 118.375 889.518 457.762
163 0 66.1032 13.4335 888 117.856 889.158 456.982
164 0 69.1827 13.6017 941 116.157 889.119 456.234
165 0 71.081 13.0133 925 118.016 888.686 454.494
166 0 73.1826 13.3912 980 117.64 888.67 451.88
167 0 75.183 13.5137 1016 118.077 888.796 450.763
168 0 80.2127 13.8257 1109 116.095 888.323 446.448
169 0 84.156 13.5582 1141 116.152 888.754 446.079
170 0 88.1383 14.0348 1237 113.636 889.135 449.639
171 1 46.0431 12.4883 575 112.146 889.405 467.675
172 0 46.0357 12.1645 560 110.873 889.421 467.702
173 0 49.0825 12.5707 617 113.87 889.352 467.384
174 0 51.0269 13.6595 697 111.71 889.017 465.34
175 0 52.0669 13.0217 678 113.462 888.677 464.15
176 0 53.1096 12.4083 659 115.851 888.156 463.247
177 0 53.0927 12.2051 648 115.981 889.517 463.307
178 0 56.1209 12.3483 693 115.062 889.671 462.899
179 0 59.0924 13.2843 785 112.983 889.707 461.696
180 0 60.1263 12.9561 779 114.807 889.42 459.952
181 0 68.1117 17.2951 1178 98.2139 889.364 454.938
182 0 67.0983 14.5756 978 107.922 888.694 456.346
183 0 67.1426 13.7915 926 112.146 889.08 455.839
184 0 69.1197 13.6719 945 113.954 889.804 451.831
185 0 71.2183 13.0584 930 116.347 889.724 452.502
186 0 73.1265 12.1707 890 119.527 889.675 444.657
187 0 75.1344 13.5757 1020 114.425 890.135 448.386
188 0 77.2877 12.7446 985 115.291 888.966 451.315
189 1 38.0556 11.0365 420 110.505 888.924 472.681
190 0 40.0134 10.6714 427 109.454 888.637 471.07
191 0 42.0981 11.7345 494 105.271 889.949 470.98
192 0 42.0143 11.2581 473 105.922 889.949 470.632
193 0 45.0697 12.2477 552 116.236 889.339 468.777
194 0 46.1248 12.3578 570 116.256 889.491 468.458
195 0 47.0819 12.4252 585 116.414 889.376 465.048
196 0 46.0492 12.0089 553 120.595 888.738 465.948
197 0 52.1913 12.7991 668 114.689 889.301 465.786
198 0 51.1877 12.4053 635 118.586 889.849 464.584
199 0 54.1653 12.8865 698 117.317 889.503 463.921
200 0 52.077 11.9054 620 123.506 889.032 462.624
201 0 54.1091 11.4583 620 123.94 889.519 462.892
202 0 57.0384 11.9744 683 123.158 889.572 462.064
203 0 60.0673 12.769 767 120.837 889.768 460.372
204 0 61.051 12.5141 764 120.969 889.931 461.745
205 0 65.0986 12.796 833 119.275 889.734 460.984
206 0 64.0322 13.6962 877 120.397 889.1 457.056
207 0 67.0725 13.3139 893 120.606 890.055 456.084
208 0 69.0458 13.1217 906 122.023 890.061 455.72
209 0 71.1152 13.3445 949 119.835 889.43 456.3
210 0 73.0704 13.398 979 120.585 890.14 453.56
211 0 76.0339 13.5729 1032 119.48 889.929 452.953
212 0 79.059 13.2812 1050 121.412 890.426 452.144
213 0 81.0416 12.4134 1006 123.894 889.367 450.572
214 0 85.0579 13.6848 1164 120.923 891.743 448.048
215 0 84.1858 12.4368 1047 125.535 890.701 446.628
216 0 88.0928 12.4414 1096 124.988 890.335 445.809
217 0 91.1062 13.1385 1197 123.023 889.51 446.307
218 0 93.0907 13.2559 1234 125.389 889.445 443.408
219 0 98.1247 13.8192 1356 122.215 890.14 443.155
220 0 98.1762 11.9785 1176 129.908 890.009 441.795
221 0 103.173 14.7035 1517 121.445 889.966 439.371
222 0 105.153 13.913 1463 125.965 890.343 436.538
223 0 110.194 16.235 1789 119.78 889.208 432.938
224 0 112.067 14.1166 1582 121.076 888.86 432.882
225 0 116.094 13.2048 1533 123.837 889.644 432.859
226 0 118.119 12.4789 1474 118.884 889.755 434.368
227 1 64.0324 11.7753 754 116.106 889.83 460.586
228 0 66.0664 10.9133 721 111.979 889.444 453.714
229 0 68.0505 11.5943 789 113.592 889.388 456.781
230 0 69.1419 11.0208 762 115.211 889.461 459.398
231 0 70.0955 10.6997 750 116.441 889.715 459.367
232 0 76.0745 11.5808 881 114.725 889.595 455.883
233 0 79.0304 11.1097 878 116.8 889.501 454.222
234 0 81.0506 10.586 858 119.024 889.976 451.703
235 0 84.1054 10.9862 924 119.205 889.908 452.34
236 0 87.0784 12.5634 1094 115.808 889.728 449.625
237 0 90.0252 11.93 1074 119.182 890.056 446.84
238 0 93.0798 13.15 1224 116.261 889.762 444.364
239 0 98.1619 12.2349 1201 117.396 889.505 443.981
240 1 50.0323 11.0728 554 114.729 889.013 468.614
241 0 49.0328 11.686 573 115.19 889.365 466.81
242 0 50.03 11.0334 552 116.915 889.902 467.06
243 0 52.0884 11.7301 611 113.671 889.504 465.882
244 0 54.0857 12.3693 669 111.735 889.879 463.28
245 0 55.0873 12.8523 708 110.106 890.165 462.417
246 0 59.1069 11.7076 692 112.564 890.127 463.788
247 0 58.0718 11.8302 687 114.387 889.805 463.226
248 0 61.0636 12.5443 766 111.867 889.397 461.505
249 0 63.0808 12.3651 780 110.729 889.315 458.208
250 0 67.0313 14.1725 950 105.145 888.65 457.468
251 0 69.0835 13.0567 902 108.315 889.375 457.7
252 0 71.0192 13.264 942 108.297 889.235 456.332
253 0 72.0707 12.5849 907 111.178 889.244 456.108
254 0 74.0679 11.8 874 112.082 889.993 456.16
255 0 76.13 12.2685 934 113.3 888.704 451.391
256 0 80.1611 11.8387 949 112.219 889.63 454.518
257 0 81.0664 11.4351 927 114.323 889.926 452.233
258 0 84.0324 11.924 1002 113.15 890.205 452.067
259 0 88.118 12.4265 1095 111.675 889.895 450.495
260 0 90.1183 13.0051 1172 117.464 889.269 446.032
261 0 93.0673 11.8194 1100 114.605 889.411 444.921
262 0 97.0901 12.339 1198 114.21 889.72 444.101
263 1 50.1415 10.8892 546 110.811 890.544 465.115
264 0 49.12 10.4235 512 106.555 889.83 458.084
265 0 50.0253 10.8745 544 105.724 888.982 454
266 0 52.0386 9.10862 474 110.618 888.914 454.31
267 0 53.0833 10.2292 543 108.239 887.958 454.838
268 0 52.1245 10.1871 531 110.802 888.738 452.738
269 0 58.0552 11.6097 674 105.556 888.994 452.576
270 0 55.0106 10.9979 605 108.565 888.246 449.638
271 0 64.0341 14.7109 942 95.7888 889.447 450.027
272 0 64.0341 14.7109 942 114.938 890.447 450.027
273 0 62.0767 10.2132 634 99.1356 888.697 454.697
274 0 64.0684 9.09965 583 100.918 889.552 455.497
275 0 66.1553 10.2788 680 100.169 889.193 452.659
276 0 69.136 9.95141 688 101.122 890.251 451.954
277 0 73.1427 10.7735 788 101.362 889.442 450.494
278 0 77.0545 12.1732 938 104.58 889.56 455.301
279 0 79.0704 11.0534 874 106.971 889.515 453.516
280 0 80.059 11.7663 942 106.683 889.959 450.954
281 0 85.1445 12.7548 1086 104.488 889.501 450.071
282 0 86.0577 11.1669 961 108.76 888.842 448.124
283 0 89.0819 10.9225 973 107.927 889.686 451.459
284 0 92.3018 12.2533 1131 106.971 889.224 443.734
285 1 48.0318 11.076 532 103.66 889.983 467.571
286 0 49.0893 11.1633 548 102.115 890.571 467.958
287 0 48.0199 10.3499 497 105.111 889.638 468.644
288 0 49.0768 10.453 513 105.096 890.328 467.54
289 0 53.0707 12.587 668 101.129 889.9 465.235
290 0 54.0519 11.0079 595 103.539 889.334 467.049
291 0 55.086 10.7287 591 104.843 890.036 465.396
292 0 58.0753 10.8135 628 104.325 889.833 464.478
293 0 60.0343 11.7266 704 102.629 889.338 462.808
294 0 62.1173 10.9309 679 104.323 889.054 461.51
295 0 63.1222 12.1035 764 102.97 890.204 460.208
296 0 64.0799 11.0331 707 104.921 889.929 460.59
297 0 68.0877 11.353 773 104.164 889.763 458.347
298 0 70.0405 12.0502 844 103.105 889.461 456.783
299 0 74.0563 11.7343 869 104.305 889.499 455.499
300 0 77.098 12.0885 932 103.055 888.668 453.886
301 0 78.0345 9.44454 737 108.411 888.826 454.86
302 1 42.045 9.44227 397 107.108 889.479 470.67
303 0 43.1033 10.9504 472 106.633 890.714 466.725
304 0 44.0382 10.945 482 111.548 890.809 467.647
305 0 48.0225 13.452 646 104.701 891.46 467.512
306 0 48.0321 13.5118 649 135.413 892.444 467.525
307 0 50.072 12.3223 617 109.298 891.182 465.627
308 0 51.0498 12.3801 632 109.481 890.81 464.706
309 0 53.052 12.2333 649 109.451 891.117 462.918
310 0 54.105 11.644 630 111.602 890.87 462.306
311 0 56.0546 12.2737 688 109.727 891.16 462.904
312 0 53.0477 12.2343 649 104.051 890.82 465.621
313 0 55.0894 12.0168 662 105.05 890.961 463.296
314 0 58.0175 12.0481 699 104.232 890.077 462.175
315 0 60.0652 11.321 680 104.681 891.246 462.249
316 0 60.0612 11.9378 717 105.344 890.796 461.727
317 0 63.0502 10.9437 690 106.603 891.001 462.546
318 0 69.1706 14.3992 996 96.8845 890.777 455.642
319 0 70.0655 14.2724 1000 98.133 890.863 455.818
320 0 69.0749 13.2899 918 102.734 891.43 455.822
321 0 71.0192 12.5881 894 105.192 890.566 455.304
322 0 72.1832 12.7453 920 104.557 890.846 457.243
323 0 74.0893 11.9855 888 106.815 891.035 456.285
324 0 77.0486 13.3163 1026 104.165 890.758 454.745
325 0 78.1116 11.1635 872 108.089 891.281 452.116
326 0 81.0762 12.6424 1025 105.04 890.161 450.568
327 0 84.0652 12.1453 1021 105.674 890.602 450.928
328 0 89.158 12.6741 1130 104.648 890.501 445.007
329 1 44.0485 10.8063 476 105.326 891.521 463.674
330 0 48.0228 11.682 561 104.102 891.182 465.791
331 0 46.1406 10.3163 476 102.681 890.599 468.571
332 0 48.0836 11.7088 563 101.142 890.44 467.092
333 0 48.0663 11.4841 552 101.361 890.411 468.873
334 0 51.0368 11.9914 612 100.98 890.526 465.709
335 0 52.0735 11.1381 580 104.405 890.895 465.691
336 0 54.0278 12.5491 678 101.248 890.653 465.283
337 0 56.0589 11.6306 652 103.379 891.029 463.19
338 0 60.0616 11.9377 717 102.509 890.662 462.237
339 0 61.036 12.1895 744 102.07 890.181 462.274
340 0 63.0882 12.2844 775 102.47 890.53 461.899
341 0 63.0813 12.3016 776 102.409 890.397 463.603
342 0 66.0377 11.6297 768 106.03 891.108 459.815
343 0 71.0437 12.7809 908 103.977 890.922 458.77
344 0 70.1186 13.2918 932 104.171 890.088 457.114
345 0 72.0304 12.8001 922 105.469 889.688 455.712
346 0 78.0469 12.7231 993 105.721 889.533 454.095
347 0 78.07 11.5025 898 107.829 890.212 456.639
348 0 82.0567 13.1251 1077 105.572 890.855 451.857
349 0 86.1257 13.6777 1178 105.707 890.026 449.209
350 0 90.0664 13.7232 1236 106.481 890.751 447.764
351 0 90.0401 11.8503 1067 111.829 890.155 446.247
352 1 49.0571 10.3961 510 107.871 890.114 470.008
353 0 50.0202 11.6753 584 105.293 890.253 467.336
354 0 51.0182 12.2701 626 105.712 889.599 465.201
355 0 53.0599 11.8734 630 100.381 890.041 467.276
356 0 53.055 12.0253 638 100.616 891.038 465.787
357 0 55.054 11.8429 652 99.7914 890.825 466.733
358 0 57.0477 13.4098 765 96.519 890.694 464.971
359 0 61.1079 11.897 727 99.5763 890.396 463.234
360 0 62.0293 12.3006 763 98.3696 890.256 463.342
361 0 64.0197 12.9023 826 97.6525 890.047 459.929
362 0 67.0959 12.5492 842 98.139 890.183 458.767
363 0 68.0736 13.2944 905 97.6807 891.034 456.453
364 0 72.0365 11.8273 852 99.2054 890.174 458.07
365 0 74.0835 13.2418 981 98.0092 890.764 454.802
366 0 76.109 13.2967 1012 98.5148 890.854 451.599
367 0 79.1517 12.7729 1011 98.271 890.058 451.888
368 0 82.0608 13.1366 1078 98.3813 891.042 449.827
369 0 85.0806 12.447 1059 99.7158 891.025 449.175
370 0 87.1738 11.999 1046 100.12 891.04 449.327
371 0 92.096 11.8355 1090 100.44 890.787 446.941
372 0 95.1849 12.8382 1222 98.5319 891.457 444.102
373 0 98.2764 12.5361 1232 98.427 891.149 443.385
374 1 48.055 9.48914 456 97.239 890.818 469.031
375 0 53.0109 10.7714 571 93.7058 890.128 468.883
376 0 53.0343 11.238 596 94.1376 889.908 467.27
377 0 57.0995 10.543 602 94.814 890.186 465.02
378 0 57.0462 11.3592 648 94.6636 890.322 462.907
379 0 60.0733 10.5538 634 95.4054 889.595 463.768
380 0 60.0173 10.6636 640 94.4844 889.638 466.441
381 0 63.0794 11.4459 722 93.964 889.633 460.47
382 0 66.0271 11.2833 745 93.7222 890.046 460.227
383 0 66.1263 10.6463 704 95.0866 890.163 460.009
384 0 67.0652 9.52804 639 95.4116 890.009 458.058
385 0 71.1608 9.31693 663 94.6169 891.021 459.318
386 0 76.1313 9.90395 754 94.0703 889.44 457.898
387 0 77.1711 11.2348 867 93.3287 889.287 454.045
388 0 80.0754 11.0521 885 94.4949 889.637 453.927
389 0 82.2499 9.25229 761 97.2733 889.244 452.97
390 0 84.0921 8.71663 733 98.1869 889.096 454.828
391 0 89.2213 8.8768 792 100.383 889.885 451.246
392 0 92.1468 11.091 1022 98.1106 890.241 450.965
393 0 92.1702 10.1768 938 106.904 890.183 447.354
394 0 95.0702 10.224 972 100.741 889.562 446.627
395 0 98.1602 12.6324 1240 99.3968 889.37 443.831
396 0 100.201 9.5807 960 105.29 889.189 443.34
397 0 104.123 11.7746 1226 101.613 889.787 440.454
398 0 108.179 11.8045 1277 101.717 890.223 437.771
399 0 112.23 12.2873 1379 100.108 890.149 438.075
400 0 117.178 11.8282 1386 101.015 889.841 434.452
401 0 120.355 10.5688 1272 103.005 889.873 430.79
402 0 125.203 9.56045 1197 103.945 890.008 427.632
403 0 132.211 11.6556 1541 99.0279 889.555 430.054
404 0 133.123 11.711 1559 100.691 889.066 422.371
405 0 140.442 10.6165 1491 101.553 890.068 422.929
406 0 144.27 11.0071 1588 101.113 889.375 418.718
407 0 150.354 9.48427 1426 103.758 889.722 418.522
408 0 156.474 12.0084 1879 101.2 889.96 410.683
409 1 78.378 9.0459 709 93.4908 890.151 455.662
410 0 83.0724 9.88294 821 92.9915 890.058 449.82
411 0 84.151 8.2352 693 94.1126 889.537 454.3
412 0 80.2371 8.1633 655 96.2901 889.502 452.133
413 1 96.2495 12.3533 1189 90.8856 889.426 444.542
414 0 95.1378 10.6057 1009 95.1407 889.015 446.138
415 0 95.0868 10.1697 967 102.147 889.16 445.27
416 1 50.1703 10.1654 510 92.1353 889.057 467.867
417 0 51.11 11.5437 590 88.4288 889.012 461.086
418 0 54.1003 9.8336 532 92.2857 889.451 469.278
419 0 52.0498 7.22386 376 97.133 890.17 469.356
420 0 54.0389 10.1408 548 94.8686 889.974 463.734
421 0 57.1365 8.0859 462 96.1277 890.084 467.786
422 0 59.1275 10.7226 634 93.142 890.147 462.808
423 0 60.0247 10.3457 621 94.8905 889.422 461.372
424 0 60.15 9.40982 566 96.5548 889.853 461.359
425 0 66.1252 10.8431 717 93.9442 889.467 460.605
426 0 67.1178 11.3234 760 94.775 889.171 458.27
427 0 71.1166 10.6726 759 95.9407 889.963 460.129
428 0 73.1142 11.3658 831 101.017 890.71 456.255
429 0 74.1326 10.9533 812 101.553 890.392 455.158
430 0 76.2045 11.3248 863 100.747 890.262 452.925
431 0 80.1448 11.5666 927 100.179 889.447 447.777
432 0 83.1955 11.0343 918 101.6 890.05 447.412
433 0 86.2639 10.9663 946 102.865 890.292 448.624
434 1 48.1319 12.3203 593 97.7976 889.889 468.794
435 0 49.1077 10.9148 536 96.4496 890.315 469.718
436 0 50.0998 10 501 98.5589 890.164 469.816
437 0 51.1501 11.3783 582 95.7766 890.699 469.366
438 0 53.0654 11.1561 592 96.4138 889.735 468.72
439 0 52.0515 11.0467 575 98.7844 889.412 466.831
440 0 57.1208 10.9767 627 98.4625 889.574 465.558
441 0 57.0996 9.49218 542 101.644 888.959 461.869
442 0 57.0653 10.1287 578 101.749 889.716 461.23
443 0 60.1284 10.6272 639 101.377 889.117 460.674
444 0 64.1256 11.3683 729 99.2291 890.455 460.418
445 0 66.175 11.1825 740 101.057 888.388 457.257
446 0 68.1049 10.7628 733 100.789 889.387 460.834
447 0 71.1957 12.5148 891 98.4265 889.792 458.136
448 0 73.1345 11.5677 846 101.169 889.444 455.675
449 0 76.0755 11.5806 881 101.17 888.843 456.002
450 0 80.1127 11.4214 915 100.728 889.068 455.111
451 0 81.0867 12.8751 1044 100.346 889.044 451.516
452 0 84.1911 11.0819 933 104.561 889.562 449.173
453 0 86.1346 12.2715 1057 101.847 889.315 443.323
454 0 88.1999 11.0318 973 105.591 889.727 437.156
455 0 96.2388 11.3572 1093 103.503 889.129 434.521
456 0 98.2397 12.0216 1181 103.749 888.818 442.275
457 1 52.0396 11.4336 595 100.447 889.066 466.289
458 0 52.1934 10.2312 534 96.3296 888.251 463.567
459 0 56.0222 13.0484 731 92.7606 888.368 458.952
460 0 56.0948 10.8031 606 98.0858 889.208 443.979
461 0 58.0828 11.7935 685 98.6861 889.11 444.244
462 0 60.1514 11.1884 673 99.7756 889.684 444.126
463 0 62.1444 10.894 677 100.693 889.028 440.972
464 0 62.1365 10.0746 626 102.003 889.216 445.845
465 0 63.0617 10.3232 651 102.06 889.075 452.167
466 0 67.1298 11.0532 742 98.624 889.255 450.243
467 0 69.2114 11.2987 782 99.7327 889.481 438.738
468 0 71.056 10.5973 753 100.805 889.501 435.458
469 0 72.0627 10.255 739 103.674 889.493 433.448
470 0 75.1241 11.4477 860 101.82 888.919 433.774
471 0 81.0724 11.0642 897 102.052 889.53 437.122
472 0 84.1024 13.3884 1126 95.595 889.576 437.405
473 0 87.078 13.976 1217 93.6467 889.194 438.582
474 0 89.1282 13.5535 1208 94.4851 889.022 440.604
475 0 91.248 12.0551 1100 99.8064 888.974 440.554
476 0 93.1944 12.0286 1121 102.095 889.104 440.13
477 0 97.2283 12.3935 1205 100.916 890.416 437.37
478 1 54.1012 12.0145 650 101.202 889.926 463.695
479 0 56.0823 11.3048 634 103.115 889.033 463.181
480 0 57.0616 12.8983 736 103.177 889.018 455.231
481 0 60.1207 13.107 788 99.2881 889.435 447.609
482 0 62.0513 13.4083 832 97.5733 888.388 453.143
483 0 63.1011 12.3928 782 100.336 888.921 456.408
484 0 67.0913 12.9376 868 97.8111 888.501 456.305
485 0 68.0969 12.9521 882 99.0816 889.39 458.679
486 0 68.1393 12.225 833 101.588 889.258 456.785
487 0 71.0766 14.0975 1002 97.5409 889.73 457.171
488 0 73.0786 11.7545 859 102.283 888.935 455.993
489 0 78.1447 12.5792 983 99.7884 889.215 455.399
490 0 82.0552 12.9547 1063 99.3057 888.451 453.474
491 0 83.1082 14.0901 1171 98.8856 889.525 453.535
492 0 89.0877 17.0057 1515 92.1148 889.851 447.255
493 0 90.0701 12.8789 1160 102.848 889.895 447.98
494 0 92.1159 13.3527 1230 102.148 889.937 450.224
495 0 96.1052 14.2864 1373 100.498 890.163 444.065
496 0 96.0703 13.2715 1275 104.668 890.302 444.707
497 0 100.054 12.873 1288 105.698 890.279 445.748
498 0 103.116 13.5866 1401 108.441 889.784 438.797
499 1 53.0245 12.5225 664 101.66 890.161 468.449
500 0 52.0828 12.0769 629 103.458 890.288 468.396
501 0 55.0579 11.6423 641 106.822 888.802 463.764
502 0 59.1502 14.3533 849 98.662 889.501 462.12
503 0 60.18 14.7723 889 98.3982 889.331 461.525
504 0 62.0724 13.1459 816 102.947 889.098 461.877
505 0 60.0396 13.0247 782 105.425 888.098 462.091
506 0 65.0589 13.3725 870 104.568 889.025 460.579
507 0 64.0598 11.8327 758 108.975 888.598 459.566
508 0 68.1188 15.473 1054 99.908 889.445 459.301
509 0 68.0673 12.1351 826 108.459 889.973 458.995
510 0 74.1197 15.5694 1154 99.7652 889.343 454.564
511 0 74.0496 12.9238 957 107.469 890.167 456.083
512 0 75.1099 12.4351 934 109.429 889.718 454.885
513 0 79.1138 12.7664 1010 108.442 889.971 454.692
514 0 81.1578 14.3178 1162 105.09 889.472 452.549
515 0 84.0935 12.6764 1066 108.992 889.945 450.867
516 0 86.0529 14.2238 1224 106.047 889.285 447.074
517 0 89.0952 13.2555 1181 108.185 889.67 448.333
518 0 92.2146 14.1518 1305 106.184 889.685 444.197
519 0 94.1631 13.5828 1279 108.012 889.329 444.314
520 0 96.1168 12.8906 1239 109.684 889.716 442.355
521 0 101.115 12.2237 1236 109.514 888.968 443.217
522 0 106.222 13.2929 1412 107.049 888.85 440.326
523 1 55.0846 11.4733 632 104.551 889.404 464.638
524 0 56.0771 11.9478 670 101.879 888.67 462.225
525 0 62.2248 12.3584 769 98.0702 890.047 462.91
526 0 61.1243 11.7956 721 95.0444 889.503 463.34
527 0 63.0505 12.942 816 94.6875 890.217 461.364
528 0 66.0955 13.2233 874 93.2666 889.323 462.733
529 0 68.0556 12.049 820 96.2146 889.477 460.222
530 0 69.0701 12.3932 856 96.1297 889.086 458.487
531 0 67.0449 11.6042 778 100.494 889.284 459.166
532 0 71.0564 11.1461 792 100.271 888.79 458.765
533 0 75.0525 12.378 929 96.4381 888.862 459.215
534 0 76.0659 12.739 969 97.5542 889.539 455.905
535 0 80.0764 11.1269 891 99.147 888.853 455.608
536 0 81.0288 13.0077 1054 96.4858 888.801 453.229
537 0 85.0428 11.5001 978 99.4826 889.132 449.881
538 0 89.0638 11.7219 1044 99.1762 889.01 448.954
539 0 89.0855 10.4282 929 101.07 889.157 451.46
540 0 96.0487 13.4307 1290 95.4729 889.792 447.732
541 0 98.0751 11.6034 1138 100.794 888.837 445.438
542 0 101.145 13.2088 1336 97.8473 888.721 442.53
543 0 105.101 13.3015 1398 104.041 888.69 442.213
544 0 108.149 13.7218 1484 103.99 888.447 440.122
545 0 110.09 13.3072 1465 106.246 888.562 437.359
546 0 114.146 13.2988 1518 107.311 889.777 434.677
547 0 118.141 12.6883 1499 107.97 889.964 433.924
548 0 122.13 12.8552 1570 108.081 890.462 430.868
549 0 128.249 13.4348 1723 106.116 890.289 429.287
550 0 132.324 13.2327 1751 106.192 889.678 426.814
551 0 136.169 12.6974 1729 106.651 889.948 425.979
552 0 142.179 13.0821 1860 105.112 890.176 425.698
553 0 145.174 12.6056 1830 106.678 890.013 422.234
554 0 148.185 12.9365 1917 106.637 890.103 417.622
555 0 153.202 13.0547 2000 103.912 890.484 416.516
556 1 84.1199 11.6025 976 105.553 889.717 452.322
557 0 84.0779 11.3228 952 111.69 889.505 450.465
558 0 87.0953 10.6435 927 105.347 890.233 450.12
559 0 88.1964 11.361 1002 106.56 890.704 449.999
560 0 90.0906 12.2876 1107 105.714 889.657 450.379
561 0 89.0661 11.9462 1064 107.303 889.611 448.539
562 0 91.2171 11.807 1077 107.224 889.06 449.659
563 0 91.188 11.0102 1004 111.03 889.438 448.901
564 0 94.1657 11.6922 1101 109.601 888.727 447.5
565 0 96.21 11.7555 1131 108.012 889.622 447.88
566 1 52.0747 10.3505 539 103.25 889.325 468.161
567 0 54.102 11.4783 621 99.4992 889.056 467.011
568 0 55.0432 10.5009 578 104.085 889.777 467.152
569 0 55.0788 11.075 610 93.741 889.552 468.31
570 0 58.0582 10.9373 635 93.3339 889.11 466.009
571 0 58.0604 9.02508 524 96.376 888.712 464.172
572 0 58.08 8.35054 485 97.1794 888.697 466.984
573 0 62.0548 9.62053 597 95.7404 889.442 464.764
574 0 61.14 9.74812 596 96.3305 889.416 465.466
575 0 65.1835 9.68036 631 97.496 890.032 461.827
576 0 66.201 11.5859 767 96.073 889.964 458.486
577 0 69.2334 11.2662 780 97.0577 889.424 457.549
578 0 72.1863 11.3872 822 97.4635 889.64 457.431
579 0 72.0992 10.1943 735 101.837 889.502 457.321
580 0 75.1396 10.3274 776 102.356 889.169 456.076
581 0 78.1846 11.3577 888 102.868 888.825 452.991
582 0 79.1091 10.5171 832 104.98 888.376 454.614
583 1 42.189 9.62336 406 106.796 890.007 471.007
584 0 42.2344 10.276 434 106.249 889.627 471.816
585 0 44.1921 11.1558 493 105.572 889.394 468.637
586 0 45.0916 10.268 463 102.715 889.598 470.816
587 0 45.0379 10.5245 474 103.473 889.827 470.281
588 0 45.0828 10.5362 475 104.015 889.265 470.575
589 0 48.0214 12.8693 618 96.1214 889.139 466.824
590 0 47.0508 10.0317 472 105.644 888.78 467.593
591 0 49.0425 11.8265 580 102.264 889.886 468.822
592 0 48.0407 9.97071 479 107.67 889.488 467.173
593 0 52.038 11.1841 582 103.804 889.081 466.787
594 0 53.0619 11.6845 620 104.377 888.1 466.439
595 0 52.0555 11.3725 592 107.149 888.108 466.074
596 0 54.032 9.93855 537 109.425 887.795 467.417
597 0 56.0691 10.2195 573 108.183 888.054 464.974
598 0 57.0593 10.6731 609 108.412 888.757 465.834
599 0 60.0277 11.7612 706 106.742 888.334 464.928
600 0 60.1082 10.8305 651 108.725 888.075 463.29
601 0 63.1672 12.0791 763 105.654 888.523 462.71
602 0 64.0884 11.609 744 107.634 888.417 461.462
603 0 65.1913 11.5813 755 108.264 888.103 461.396
604 0 70.1706 11.6573 818 107.177 888.567 462.053
605 0 72.1308 12.2971 887 106.795 888.204 459.901
606 0 74.104 12.5769 932 107.673 888.513 458.359
607 0 75.0828 11.9868 900 108.674 889.38 454.127
608 0 79.0384 12.1207 958 107.974 888.947 455.752
609 0 82.044 11.5426 947 108.182 888.528 453.598
610 0 85.1838 11.528 982 109.091 889.044 452.891
611 0 90.0353 13.628 1227 104.801 888.423 451.345
612 1 47.0238 10.08 474 114.426 888.316 469.869
613 0 48.0516 9.53141 458 114.841 888.474 470.12
614 0 51.0801 10.924 558 112.692 888.337 466.609
615 0 54.0496 11.4339 618 109.866 889.062 465.906
616 0 51.0495 11.4007 582 104.564 889.172 460.933
617 0 54.0377 10.6037 573 105.216 888.791 461.218
618 0 61.1358 12.4477 761 107.449 888.784 465.968
619 0 63.0538 13.2268 834 105.378 888.52 465.765
620 0 66.0299 12.2823 811 108.133 888.949 463.613
621 0 67.1304 12.0065 806 109.341 888.862 461.679
622 0 71.0738 13.5915 966 105.308 888.885 460.495
623 0 72.0439 12.4646 898 109.542 887.979 458.481
624 0 72.0569 12.4485 897 140.692 886.991 458.336
625 0 77.0787 12.5197 965 107.974 888.304 457.513
626 0 78.1426 12.2852 960 109.34 888.314 455.652
627 0 81.1197 12.7959 1038 108.413 887.988 452.724
628 0 84.2521 13.246 1116 106.958 888.366 452.259
629 0 85.1154 12.2892 1046 109.109 887.637 449.551
630 0 89.0801 12.7975 1140 108.444 888.165 449.525
631 0 92.1572 11.5021 1060 110.863 887.89 447.684
632 0 95.0966 12.0824 1149 109.99 888.149 447.625
633 0 99.1456 12.1639 1206 109.344 888.008 444.717
634 0 103.292 12.2275 1263 109.255 888.219 443.175
635 0 106.199 12.4954 1327 109.39 887.91 442.172
636 1 53.1059 9.69761 515 107.845 888.214 468.551
637 0 53.0662 10.8544 576 108.207 888.635 467.88
638 0 58.1845 12.0307 700 104.761 888.236 464.826
639 0 56.1071 10.177 571 109.131 887.648 466.305
640 0 60.1416 10.5085 632 107.459 888.166 464.449
641 0 62.0363 10.3488 642 107.724 887.74 465.372
642 1 77.0862 7.67971 592 108.503 887.877 466.439
643 0 69.1002 12.7351 880 103.202 888.083 453.642
644 0 71.2979 10.5333 751 106.848 888.296 458.501
645 0 71.2342 10.641 758 107.248 888.222 457.237
646 0 75.0342 10.6485 799 106.208 888.685 457.638
647 0 77.1139 11.5803 893 104.42 888.339 455.639
648 0 80.1067 11.9216 955 104.026 888.106 450.25
649 0 83.0848 12.4331 1033 102.086 887.747 451.936
650 0 85.1556 11.7315 999 104.339 888.847 450.186
651 0 88.121 10.2586 904 107.108 888.202 449.573
652 0 92.1385 10.8641 1001 106.433 888.184 444.237
653 1 48.0172 10.5587 507 105.556 888.604 467.142
654 0 49.0842 10.9811 539 105.377 888.655 469.39
655 0 51.0401 11.775 601 104.456 887.682 467.265
656 0 53.0132 11.7706 624 106.117 887.559 465.165
657 0 56.1113 11.0316 619 106.695 888.313 466.528
658 0 56.0256 10.6558 597 107.935 887.99 462.261
659 0 59.0381 11.0776 654 106.054 888.229 461.439
660 0 61.0852 11.9342 729 103.645 888.343 463.542
661 0 63.023 10.8215 682 106.484 888.95 460.503
662 0 62.0866 11.5323 716 106.158 888.876 459.64
663 0 67.1544 12.5829 845 103.155 888.742 456.515
664 0 70.0795 11.0731 776 104.593 888.937 456.131
665 0 72.0624 12.3227 888 101.548 888.275 452.911
666 0 75.2054 11.2625 847 104.607 889.086 450.691
667 0 77.111 11.892 917 103.146 888.576 450.387
668 0 80.1056 12.2463 981 102.102 889.344 449.557
669 0 82.0424 12.591 1033 104.437 889.449 444.984
670 0 89.1032 11.9412 1064 105.432 889.366 443.792
671 0 89.1339 11.6454 1038 106.779 889.728 442.976
672 0 93.1079 12.2009 1136 105.79 889.276 441.176
673 0 97.1084 12.9958 1262 104.376 888.937 438.158
674 0 98.1186 12.3626 1213 104.958 889.01 438.082
675 0 105.118 12.4431 1308 103.803 889.407 436.76
676 1 52.0428 9.3769 488 102.908 889.068 461.291
677 0 56.0927 11.2136 629 101.208 889.781 461.172
678 0 56.1532 9.13572 513 96.1209 890.123 466.429
679 0 59.0311 10.3674 612 93.7369 889.874 466.33
680 0 63.0444 10.0881 636 94.9654 890.969 463.184
681 0 66.0702 11.4272 755 92.6 889.917 458.959
682 0 68.1704 11.2072 764 93.2997 890.746 457.257
683 0 71.083 13.0129 925 91.5816 889.978 456.93
684 0 71.0552 10.5833 752 97.0625 889.894 454.303
685 0 75.0997 10.1998 766 96.8094 889.973 456.531
686 0 76.072 11.0553 841 97.5482 890.308 450.265
687 0 81.1569 10.4735 850 98.9024 890.527 450.631
688 0 84.2742 11.7474 990 97.5616 890.315 447.357
689 0 86.0318 11.5887 997 98.9559 890.333 448.346
690 0 89.1163 11.513 1026 99.7739 891.272 449.028
691 0 92.0826 11.4788 1057 101.101 890.549 446.85
692 0 95.139 9.96437 948 105.453 891.047 444.115
693 1 52.0739 10.3891 541 106.039 890.675 463.416
694 0 51.1187 10.3485 529 108.539 890.497 462.217
695 0 54.0401 12.5277 677 106.074 890.832 460.753
696 0 56.0804 10.8594 609 111.14 890.558 463.55
697 0 60.0386 10.1435 609 113.167 890.527 462.498
698 0 60.0698 11.3701 683 111.272 890.862 461.239
699 0 62.1923 12.3006 765 109.068 891.292 460.255
700 0 65.1159 11.9019 775 110.695 891.458 460.214
701 0 66.1293 12.0673 798 110.605 890.885 459.593
702 0 68.0331 11.3474 772 113.62 891.154 457.016
703 0 69.1382 11.2817 780 114.621 890.535 456.274
704 0 72.1756 12.4557 899 111.874 890.838 457.222
705 0 76.1015 12.9695 987 110.451 891.36 455.316
706 0 79.0514 12.5614 993 109.982 890.368 452.795
707 0 78.0589 11.4913 897 113.051 890.616 452.46
708 0 83.1268 13.2208 1099 108.478 891.214 451.585
709 0 85.0883 12.4929 1063 110.381 890.186 449.198
710 0 89.1477 13.2813 1184 108.343 890.914 448.128
711 0 90.2003 12.5055 1128 111.943 890.665 446.524
712 0 95.1299 12.4041 1180 107.848 890.916 447.207
713 0 98.2261 12.9904 1276 109.034 891.711 445.531
714 0 99.1468 11.9217 1182 114.23 891.366 439.93
715 0 105.267 12.8911 1357 109.794 891.388 443.019
716 1 55.0978 10.3271 569 109.905 890.642 462.012
717 0 60.1678 12.1826 733 106.341 890.552 462.011
718 0 61.0681 11.5936 708 107.531 891.045 461.328
719 0 63.0235 11.9797 755 105.759 891.634 461.029
720 0 64.0566 12.0987 775 99.2168 891.254 459.472
721 0 66.0947 11.3474 750 100.397 891.205 459.776
722 0 68.1523 11.7971 804 100.323 890.959 457.723
723 0 73.0942 12.3402 902 98.714 890.978 455.99
724 0 72.0804 8.78187 633 104.633 891.098 456.504
725 0 77.1086 11.4514 883 100.33 891.4 453.276
726 0 80.1146 11.0841 888 100.782 891.291 452.343
727 0 82.0788 11.2697 925 100.631 891.088 452.737
728 0 85.1595 11.4609 976 102.555 890.142 449.884
729 0 88.1292 11.5172 1015 105.373 890.371 445.583
730 0 92.0838 11.6524 1073 103.954 890.222 446.677
731 1 46.0479 10.4239 480 104.652 890.3 467.283
732 0 46.0518 10.2059 470 105.757 890.634 465.6
733 0 52.0956 10.5767 551 102.722 890.915 466.672
734 0 54.0855 11.5928 627 99.8772 891.332 465.951
735 0 50.0785 11.0626 554 99.8357 889.527 468.747
736 0 50.0573 11.5867 580 100.641 889.557 465.348
737 0 55.0497 11.4442 630 100.416 889.362 464.61
738 0 57.1054 12.4682 712 98.7893 889.211 463.881
739 0 60.079 12.2006 733 99.0587 890.003 459.862
740 0 60.1415 11.8055 710 100.499 888.845 461.277
741 0 63.1072 10.9338 690 102.661 890.083 461.796
742 0 64.2112 10.2007 655 104.757 889.411 461.202
743 0 68.0909 11.1028 756 103.673 889.892 457.724
744 0 71.0433 10.2754 730 104.842 889.649 459.104
745 0 74.0524 11.1948 829 104.087 889.552 456.006
746 0 79.1376 12.0802 956 102.528 889.278 452.841
747 0 83.2518 11.0268 918 105.444 889.4 453.051
748 0 84.1056 12.3654 1040 104.579 888.834 446.401
749 1 42.0376 10.0148 421 104.349 889.632 467.71
750 0 40.049 11.0115 441 96.6395 889.63 463.54
751 0 44.0244 8.90416 392 101.028 890.245 467.622
752 0 44.0615 10.3265 455 97.0154 889.877 463.938
753 0 46.0381 9.79623 451 98.2217 890.466 464.701
754 0 46.0531 9.53248 439 98.7836 889.683 463.688
755 0 51.0361 10.4436 533 96.5947 890.15 462.478
756 0 48.0369 10.6376 511 98.2329 890.524 459.202
757 0 58.0482 11.0942 644 103.057 890.508 463.932
758 0 62.027 12.7364 790 99.1367 890.567 463.848
759 0 61.0391 10.9929 671 104.434 890.079 461.128
760 0 64.0903 11.6242 745 102.898 889.946 460.338
761 0 66.0801 11.9703 791 102.135 890.034 458.654
762 0 69.0385 11.8919 821 101.395 891.135 458.697
763 0 71.0951 11.576 823 101.338 889.672 457.93
764 0 74.0581 12.1121 897 100.651 890.057 455.643
765 0 78.1082 12.5339 979 99.5046 889.316 455.233
766 0 80.1656 13.2102 1059 98.2021 888.069 453.819
767 0 82.0913 11.9257 979 100.668 888.505 452.157
768 0 86.0679 12.4669 1073 98.0401 889.171 451.503
769 0 89.1218 10.9738 978 94.1656 889.802 450.635
770 0 90.1738 10.9677 989 94.8635 888.756 448.286
771 0 95.1428 11.8243 1125 95.96 888.618 447.451
772 0 96.1658 11.6881 1124 99.5943 888.831 442.48
773 0 101.049 11.0936 1121 99.1632 888.17 443.579
774 0 106.067 12.4449 1320 95.9848 888.442 441.825
775 0 110.112 11.57 1274 97.9388 889.415 438.638
776 0 112.129 12.6104 1414 96.4802 889.139 437.853
777 0 114.162 12.5085 1428 97.4083 889.353 434.204
778 0 117.218 9.93871 1165 101.823 889.447 431.783
779 0 124.137 12.5184 1554 97.2149 888.857 430.095
780 0 128.14 9.6925 1242 104.802 888.326 428.97
781 1 70.2637 11.4284 803 102.359 889.564 457.923
782 0 72.0265 12.2871 885 101 889.145 456.585
783 0 76.11 12.9812 988 100.023 889.281 453.462
784 0 77.0855 11.7272 904 98.1991 889.279 455.098
785 0 81.15 11.3493 921 99.1878 889.662 455.279
786 0 84.1366 11.9805 1008 98.7302 889.938 454.389
787 0 87.1367 11.1778 974 100.703 889.545 452.267
788 0 92.0439 12.8417 1182 98.357 890.138 449.111
789 0 96.225 12.0966 1164 100.448 889.616 448.378
790 0 103.129 14.7291 1519 90.896 889.08 438.186
791 0 113.175 15.719 1779 86.6532 888.591 438.045
792 1 54.3108 10.311 560 105.477 890.377 460.902
793 0 56.1922 11.8166 664 94.488 891.021 454.145
794 0 57.2673 11.1233 637 98.1994 890.063 452.176
795 0 57.185 10.9469 626 99.9872 889.947 455.292
796 0 61.1525 11.3323 693 98.0433 889.795 457.137
797 0 64.1546 11.3476 728 98.5096 889.754 462.203
798 0 62.0828 10.8081 671 101.69 890.909 465.547
799 0 67.066 13.1065 879 98.2719 889.742 463.651
800 0 67.0307 12.2034 818 103.119 890.554 461.433
801 0 69.0855 11.7391 811 104.874 890.078 461.436
802 0 72.0558 11.7964 850 105.861 889.949 459.705
803 0 76.0752 13.1975 1004 104.286 889.642 457.871
804 0 80.0687 13.1512 1053 104.472 889.795 458.392
805 0 78.137 11.2623 880 111.638 889.207 455.878
806 0 85.1146 13.4525 1145 108.411 889.183 454.005
807 0 87.0924 13.3766 1165 108.671 889.48 454.52
808 0 87.0804 12.6779 1104 113.881 888.706 449.358
809 0 93.087 13.2242 1231 113.21 889.54 449.509
810 0 96.0798 13.0204 1251 117.255 888.737 446.074
811 0 101.127 14.7538 1492 112.486 889.414 446.225
812 0 100.106 12.7365 1275 120.035 888.476 441.048
813 1 56.0351 11.8854 666 111.598 889.599 469.017
814 0 56.0351 11.8319 663 142.409 890.62 468.913
815 0 57.0658 11.1801 638 116.522 889.293 466.169
816 0 60.0389 12.5419 753 113.494 889.008 464.457
817 0 61.0596 12.7744 780 112.601 889.241 465.137
818 0 65.0717 13.5543 882 109.07 888.95 462.749
819 0 66.037 13.1593 869 110.308 888.799 460.782
820 0 69.0546 12.005 829 112.906 887.96 458.869
821 0 70.07 11.4742 804 114.296 888.403 457.884
822 0 76.0742 12.9216 983 110.269 887.884 456.912
823 0 78.0654 12.4255 970 110.851 888.258 456.065
824 0 80.0562 12.5412 1004 110.294 888.889 453.678
825 0 83.038 12.6689 1052 110.39 887.821 452.349
826 0 86.0814 12.6973 1093 110.509 888.511 449.417
827 0 88.0382 12.0289 1059 112.802 888.715 448.025
828 0 92.0831 12.5865 1159 110.198 888.099 448.438
829 0 96.0594 12.2112 1173 110.495 888.894 447.388
830 0 99.1013 12.8959 1278 108.917 888.995 444.297
831 1 51.0416 11.1674 570 102.254 887.772 467.539
832 0 53.048 11.5933 615 99.5447 888.989 467.675
833 0 55.0862 10.8376 597 100.759 888.764 465.809
834 0 57.0974 11.1213 635 99.9165 887.408 466.539
835 0 59.0517 12.0572 712 99.3666 887.515 463.101
836 0 60.0714 10.8038 649 102.276 889.056 463.368
837 0 62.1546 10.49 652 102.367 889.014 462.793
838 0 65.0558 12.1588 791 98.7914 889.411 461.479
839 0 69.0352 12.0808 834 98.3765 889.297 457.958
840 0 71.1021 11.5749 823 99.1592 889.396 461.062
841 0 71.0755 11.3682 808 102.407 889.389 457.915
842 0 75.089 11.7061 879 101.065 889.72 459.309
843 0 76.1251 11.3235 862 102.979 889.616 455.37
844 0 80.1247 11.6443 933 102.353 889.837 454.161
845 0 85.2567 10.6385 907 105.491 890.33 452.14
846 0 89.0565 12.1271 1080 101.423 890.104 451.747
847 0 89.1823 11.056 986 105.144 890.556 452.001
848 0 95.1392 12.0875 1150 105.263 890.301 447
849 0 98.0987 12.1001 1187 105.615 890.094 446.169
850 1 52.0987 10.8256 564 106.484 890.039 468
851 0 55.103 11.6328 641 112.256 889.13 466.707
852 0 53.0284 9.16489 486 105.992 890.039 467.469
853 0 56.0583 10.4534 586 104.166 889.985 468.264
854 0 57.0339 10.9409 624 103.535 890.508 467.157
855 0 60.0414 10.4594 628 103.127 890.089 467.306
856 0 61.0509 10.0899 616 104.865 889.854 466.003
857 0 64.0347 10.8535 695 104.092 889.774 464.494
858 0 67.0622 12.0336 807 101.939 889.434 461.667
859 0 69.049 9.61637 664 105.184 890.029 464.271
860 0 72.0478 12.0476 868 102.092 888.779 460.159
861 0 75.0843 11.9599 898 102.792 889.324 458.854
862 0 78.0908 11.6147 907 103.576 889.155 457.73
863 0 80.0711 11.24 900 103.767 888.777 457.086
864 0 86.1442 13.2917 1145 100.491 889.087 454.155
865 0 87.1538 12.0477 1050 102.625 889.315 453.552
866 0 88.164 12.2159 1077 103.944 889.339 452.536
867 0 95.1089 13.637 1297 100.269 889.148 448.442
868 0 98.1025 13.7305 1347 102.432 889.329 446.905
869 1 53.0524 11.3473 602 105.837 890.131 469.002
870 0 55.0435 10.5008 578 108.979 889.891 467.798
871 0 56.0406 12.4909 700 102.914 889.169 467.236
872 0 57.0935 11.9979 685 115.07 889.582 463.439
873 0 63.072 11.5265 727 114.574 889.597 465.151
874 0 64.1274 12.8494 824 111.762 889.967 463.623
875 0 65.0428 11.7922 767 113.425 889.51 463.352
876 0 67.0635 12.093 811 113.206 889.692 460.989
877 0 70.0689 11.7028 820 113.178 889.174 460.074
878 0 71.0705 12.368 879 112.745 888.845 456.701
879 0 75.0954 13.1566 988 109.128 889.178 458.239
880 0 78.085 11.8461 925 113.477 889.016 454.848
881 0 80.1012 12.9336 1036 111.929 890.036 455.869
882 0 81.0572 12.9661 1051 114.173 889.6 453.441
883 0 81.1006 13.2428 1074 114.904 889.034 452.675
884 0 88.0992 13.5189 1191 113.004 890.049 450.746
885 0 85.1409 12.2973 1047 118.112 889.248 449.099
886 0 92.1191 12.549 1156 116.054 888.419 448.292
887 1 53.1055 11.8255 628 110.76 889.204 468.08
888 0 51.1108 10.3109 527 116.579 889.186 467.765
889 0 55.0544 12.7147 700 114.779 888.877 465.926
890 0 57.0432 13.2531 756 113.23 888.832 465.302
891 0 55.1303 11.4637 632 113.351 888.786 463.085
892 0 60.0695 12.5355 753 114.964 888.64 464.663
893 0 62.0336 13.7506 853 112.202 888.754 462.553
894 0 65.0678 12.9557 843 114.25 889.804 461.719
895 0 66.0254 14.0552 928 112.578 890.092 458.918
896 0 69.0889 12.7083 878 115.177 889.983 458.005
897 0 70.1058 13.0945 918 113.694 889.45 458.032
898 0 74.0686 12.6909 940 113.764 889.599 456.94
899 0 74.0784 12.6623 938 114.98 889.312 453.462
900 0 80.0741 14.0994 1129 110.149 888.896 453.88
901 0 82.0572 13.9415 1144 110.786 889.686 451.125
902 0 84.1014 15.1365 1273 108.418 889.676 451.859
903 0 88.0887 13.3729 1178 112.759 890.259 449.266
904 0 89.0719 14.595 1300 110.666 890.332 448.567
905 0 93.0929 14.2116 1323 110.613 890.169 446.039
906 0 96.171 14.1207 1358 111.02 890.216 446.062
907 0 98.0612 14.2054 1393 111.539 890.053 444.289
908 0 102.062 13.6486 1393 112.702 889.837 442.449
909 0 107.186 14.4142 1545 111.932 889.588 439.53
910 1 61.091 12.8333 784 108.342 889.841 463.853
911 0 61.0465 12.8427 784 109.21 890.449 463.533
912 0 65.0595 13.7413 894 110.463 890.5 460.405
913 0 65.0355 12.6085 820 113.117 889.91 459.859
914 0 69.0674 13.4941 932 110.588 889.744 459.386
915 0 72.0391 14.3256 1032 108.679 889.978 458.258
916 0 75.0839 14.4771 1087 108.071 890.078 456.493
917 0 77.0232 12.7624 983 112.241 888.684 454.698
918 0 78.0527 13.0681 1020 112.632 889.57 453.095
919 0 82.0987 12.485 1025 111.774 888.816 453.074
920 0 86.0452 14.3413 1234 108.007 889.402 449.674
921 0 89.1301 13.0147 1160 111.104 889.01 448.705
922 0 91.0964 13.0192 1186 110.494 889.59 447.49
923 0 94.1385 11.8442 1115 113.797 889.639 445.013
924 0 100.076 13.5997 1361 109.622 889.899 443.6
925 0 103.152 13.3395 1376 111.614 889.638 442.451
926 1 53.0278 12.0691 640 111.37 889.986 465.388
927 0 56.0482 12.6677 710 109.741 888.994 465.051
928 0 58.1744 13.7517 800 107.898 889.945 464.066
929 0 58.1694 13.8045 803 136.212 890.936 464.081
930 0 64.0563 13.3788 857 107.4 889.663 461.637
931 0 65.0748 12.3396 803 110.456 889.877 458.624
932 0 67.078 13.0296 874 107.376 890.05 458.914
933 0 71.1669 13.11 933 107.596 889.697 456.186
934 0 73.0332 13.3775 977 107.157 889.336 457.016
935 0 75.1024 12.716 955 108.134 890.081 454.42
936 0 78.0594 13.3616 1043 107.52 889.35 452.357
937 0 81.2291 13.0003 1056 107.374 889.238 451.978
938 0 82.1163 12.531 1029 108.936 889.522 451.336
939 0 86.0996 12.7527 1098 109.094 889.46 448.296
940 0 90.0672 14.4115 1298 105.309 889.235 448.253
941 0 92.0331 12.1261 1116 110.866 889.418 447.72
942 0 94.0814 11.9258 1122 111.453 890.269 444.868
943 0 99.147 13.4144 1330 107.008 890.356 443.708
944 0 102.097 13.0072 1328 109.572 889.612 441.531
945 0 106.123 13.8424 1469 109.163 889.576 438.925
946 1 60.1254 12.0914 727 105.847 889.523 462.113
947 0 62.1005 12.2865 763 104.295 889.115 460.761
948 0 65.0759 12.5392 816 100.181 890.001 462.424
949 0 68.0608 10.8726 740 104.57 889.314 460.801
950 0 72.0997 13.5368 976 100.991 888.836 457.417
951 0 72.0405 11.1604 804 105.408 889.16 456.83
952 0 75.1912 11.371 855 105.295 889.408 455.746
953 0 81.1243 12.7459 1034 103.516 889.846 454.717
954 0 83.1022 13.1886 1096 106.637 889.192 450.733
955 0 88.1386 14.1368 1246 102.187 888.923 447.081
956 0 91.0478 12.8504 1170 106.515 889.169 447.285
957 0 93.0833 12.1612 1132 107.759 889.382 447.596
958 0 97.1225 12.1084 1176 107.537 889.63 444.744
959 0 101.092 12.6518 1279 106.254 889.232 444.439
960 0 106.143 12.2665 1302 109.207 888.834 439.16
961 1 53.0681 11.6454 618 104.715 889.358 466.094
962 0 56.0503 12.6494 709 106.113 889.944 464.743
963 0 58.067 12.8472 746 107.787 890.563 463.759
964 0 60.0443 12.6573 760 108.118 890.396 463.697
965 0 62.0285 12.7844 793 107.422 890.142 462.357
966 0 63.0765 12.2391 772 108.56 890.065 461.365
967 0 67.1052 12.6667 850 108.355 890.359 459.853
968 0 68.0377 12.8458 874 108.653 890.062 456.895
969 0 72.1471 12.128 875 109.08 890.154 458.483
970 0 74.0798 12.5 926 109.568 890.035 455.69
971 0 78.1769 13.4694 1053 107.417 889.999 456.034
972 0 79.0838 13.5805 1074 107.727 890.051 454.115
973 0 82.04 13.1643 1080 110.016 890.265 451.976
974 0 83.1459 12.8329 1067 111.716 889.569 450.126
975 0 89.0739 14.1456 1260 108.167 889.488 449.516
976 0 93.0949 14.2865 1330 107.277 888.934 449.035
977 0 93.071 13.0008 1210 113.055 889.477 445.683
978 0 98.0735 13.2452 1299 111.85 889.323 444.468
979 1 51.0461 11.0684 565 108.641 889.635 468.979
980 0 54.0561 12.0246 650 107.438 889.574 465.945
981 0 56.025 12.2624 687 109.792 889.438 465.001
982 0 55.0523 12.7152 700 110.04 889.191 461.899
983 0 59.0916 12.1676 719 108.912 889.796 462.626
984 0 61.1322 12.1376 742 108.732 889.875 461.543
985 0 63.0282 13.0894 825 105.821 889.578 460.35
986 0 65.0681 11.926 776 109.311 889.753 456.116
987 0 69.0572 13.1775 910 105 890.007 456.685
988 0 69.1042 13.4724 931 104.947 889.9 454.267
989 0 74.1492 11.8814 881 106.234 890.112 455.739
990 0 77.0815 12.5322 966 105.255 889.644 453.988
991 0 79.268 12.1613 964 106.036 890.111 453.15
992 0 80.0706 12.8512 1029 104.387 888.925 453.123
993 0 85.1736 12.2221 1041 105.922 889.516 449.906
994 0 88.0794 12.9429 1140 105.23 889.06 445.717
995 0 92.2469 12.7592 1177 105.927 889.915 446.519
996 0 92.123 11.8537 1092 109.305 889.912 444.943
997 0 97.1358 12.1891 1184 108.177 890.023 442.247
998 0 102.235 13.7429 1405 105.31 890.609 440.824
999 0 107.161 12.4859 1338 107.818 890.11 437.039
1000 1 59.0699 10.5299 622 104.473 891.344 463.079
1001 0 62.0228 11.7537 729 106.616 890.946 458.82
1002 0 65.0412 11.7925 767 108.698 890.562 457.438
1003 0 69.0687 12.2342 845 105.748 890.137 457.378
1004 0 72.1004 13.7031 988 103.894 889.886 455.042
1005 0 73.059 12.2504 895 108.324 890.077 451.817
1006 0 75.0541 12.1779 914 107.47 889.666 452.804
1007 0 78.0971 12.6381 987 107.868 889.97 452.041
1008 0 83.0396 12.6807 1053 107.413 890.193 450.407
1009 0 86.0815 11.9538 1029 109.93 890.151 448.518
1010 0 89.1125 12.041 1073 109.584 890.158 446.016
1011 0 92.181 12.6599 1167 109.47 890.873 444.213
1012 0 97.1525 12.115 1177 109.37 890.041 440.919
1013 0 97.0625 11.9511 1160 113.757 889.911 435.563
1014 0 104.055 12.3973 1290 110.85 889.93 439.337
1015 0 106.177 11.867 1260 112.036 890.332 438.882
1016 0 113.134 13.0907 1481 111.833 889.68 435.966
1017 0 116.144 14.3443 1666 111.027 890.057 433.954
1018 1 62.0988 12.2869 763 111.615 890.162 460.828
1019 0 62.0391 12.5082 776 111.5 890.241 455.107
1020 0 66.1002 12.4659 824 113.437 889.709 457.387
1021 0 69.1566 12.797 885 113.017 891.499 457.11
1022 0 71.1594 12.0855 860 115.295 890.692 457.151
1023 0 75.0702 12.4683 936 114.705 890.234 454.619
1024 0 75.161 12.5597 944 116.653 890.595 453.212
1025 0 79.1618 13.0113 1030 116.52 890.225 450.929
1026 0 83.0872 13.7326 1141 114.712 890.964 451.583
1027 0 86.0672 13.2222 1138 116.551 890.678 451.134
1028 0 88.1853 13.0521 1151 117.738 890.743 448.834
1029 0 89.0416 13.2073 1176 119.123 890.314 446.051
1030 0 94.0878 13.7531 1294 117.071 890.379 442.672
1031 0 99.1356 14.5155 1439 115.145 890.517 441.778
1032 0 102.211 14.1864 1450 115.933 890.335 440.746
1033 0 105.062 13.097 1376 121.073 890.661 437.426
1034 0 109.156 13.2562 1447 119.314 890.334 439.655
1035 0 113.11 13.0935 1481 122.786 890.398 433.34
1036 0 119.087 13.6623 1627 119.806 890.388 432.2
1037 1 45.0549 11.2085 505 109.562 890.652 468.754
1038 0 47.0799 12.5106 589 105.783 891.122 466.986
1039 0 46.1071 11.1913 516 109.998 889.886 467.961
1040 0 47.019 11.506 541 110.505 889.741 465.806
1041 0 52.0897 11.8642 618 108.285 890.225 466.453
1042 0 51.0268 11.6213 593 109.11 890.261 467.238
1043 0 53.0698 11.4378 607 110.1 890.124 465.962
1044 0 57.0757 11.6162 663 109.691 889.979 463.549
1045 0 60.1248 12.2246 735 107.936 889.064 462.355
1046 0 60.0693 12.6687 761 108.014 890.36 462.556
1047 0 63.1056 12.693 801 109.353 890.006 459.404
1048 0 63.0995 11.2996 713 112.351 889.627 459.509
1049 0 64.0378 10.9935 704 113.605 889.283 459.121
1050 0 68.1032 11.6588 794 111.904 889.32 456.301
1051 0 72.0284 11.9397 860 110.557 889.166 457.196
1052 0 74.0452 10.8852 806 113.444 889.458 456.674
1053 0 76.0791 11.9744 911 112.233 889.337 454.868
1054 0 77.0713 11.5088 887 114.391 888.977 453.091
1055 0 81.0523 14.0033 1135 108.452 889.415 449.981
1056 0 85.1725 12.5158 1066 112.471 889.929 448.841
1057 0 88.0999 12.4404 1096 112.533 890.077 448.245
1058 0 91.1524 12.3091 1122 115.74 889.818 444.717
1059 0 98.089 11.408 1119 119.494 889.93 441.503
1060 0 101.149 10.8651 1099 119.316 890.196 441.938
1061 1 51.0659 12.3174 629 115.852 890.318 462.762
1062 0 53.0743 12.5108 664 116.119 890.264 462.041
1063 0 53.0446 12.6497 671 114.149 889.732 462.99
1064 0 55.0448 13.4618 741 112.128 889.81 461.699
1065 0 58.0799 12.7239 739 111.433 889.367 463.08
1066 0 59.0738 12.6452 747 113.758 889.937 460.697
1067 0 62.0499 12.4255 771 114.345 889.569 458.506
1068 0 64.0806 13.1085 840 112.754 889.49 457.031
1069 0 66.0967 12.9205 854 112.623 890.142 456.034
1070 0 66.0774 12.44 822 115.133 889.658 454.408
1071 0 70.0393 13.6209 954 112.232 889.444 451.917
1072 0 72.067 12.9185 931 113.87 889.939 452.675
1073 0 72.1483 13.3752 965 113.836 890.217 451.491
1074 0 74.0574 12.8279 950 115.265 890.158 450.336
1075 0 79.2065 13.4459 1065 114.51 890.139 442.366
1076 0 82.1003 13.8489 1137 113.953 890.62 440.66
1077 0 86.0846 14.207 1223 112.737 890.006 440.402
1078 0 88.0962 14.0755 1240 113.369 891.213 439.726
1079 0 90.0535 13.7363 1237 114.912 890.987 436.506
1080 0 95.2468 14.4572 1377 112.649 890.948 436.678
1081 0 97.1969 13.3852 1301 116.244 891.235 431.792
1082 0 100.088 14.5373 1455 114.535 890.78 428.265
1083 0 105.081 13.4754 1416 115.833 891.028 431.503
1084 0 108.106 13.5607 1466 117.08 891.883 426.845
1085 0 113.197 14.2406 1612 115.182 891.489 426.808
1086 0 117.115 15.1731 1777 113.198 891.759 425.536
1087 0 119.247 14.4155 1719 115.856 890.991 423.052
1088 0 123.178 13.9311 1716 117.036 891.796 423.476
1089 0 127.255 12.8561 1636 121.589 891.326 420.728
1090 0 130.09 13.5829 1767 119.753 891.095 416.986
1091 0 140.161 14.9685 2098 115.959 890.968 415.027
1092 0 145.232 15.8367 2300 114.705 891.344 412.774
1093 0 149.266 14.0353 2095 118.777 890.412 415.437
1094 0 160.122 15.6693 2509 114.822 890.422 404.692
1095 0 163.129 14.8226 2418 118.576 890.844 404.491
1096 0 169.277 14.686 2486 120.095 890.276 401.025
1097 0 173.141 13.4746 2333 124.27 889.936 399.85
1098 0 181.134 15.2042 2754 120.794 890.542 392.306
1099 0 190.225 13.5734 2582 125.766 890.077 390.897
1100 0 199.189 16.1154 3210 119.981 890.214 386.278
1101 0 204.192 14.0848 2876 128.125 890.206 382.546
1102 0 214.163 14.3863 3081 127.803 890.689 377.883
1103 0 221.369 15.0563 3333 125.437 890.564 377.601
1104 0 229.288 13.6553 3131 130.426 890.205 370.443
1105 0 240.396 14.8671 3574 127.254 890.354 370.051
1106 0 247.241 14.6133 3613 128.581 890.425 362.041
1107 0 249.309 13.2125 3294 131.389 890.887 366.784
1108 0 250.285 13.1091 3281 133.005 890.336 370.723
1109 0 249.267 11.249 2804 134.856 890.856 379.908
1110 0 248.238 9.04373 2245 131.286 890.654 397.787
1111 0 249.33 11.1699 2785 132.017 890.887 374.658
1112 1 83.0869 10.5793 879 119.736 891.515 445
1113 0 88.1315 11.653 1027 117.258 891.002 441.818
1114 0 90.1055 13.0736 1178 113.777 891.085 439.768
1115 0 95.1784 13.0282 1240 113.585 890.979 438.225
1116 0 94.0718 11.1723 1051 118.41 891.012 438.795
1117 0 98.0854 12.693 1245 113.822 890.836 437.9
1118 0 104.073 11.5399 1201 116.437 890.702 435.473
1119 0 107.077 12.0848 1294 117.366 890.27 431.427
1120 0 113.12 13.6227 1541 113.866 891.131 427.221
1121 0 114.138 13.6414 1557 114.109 890.978 428.514
1122 0 115.053 11.7772 1355 120.41 890.866 423.675
1123 0 121.23 12.8846 1562 117.483 891.659 419.46
1124 0 127.081 13.8573 1761 114.658 891.038 418.618
1125 0 130.238 13.0837 1704 114.028 890.428 413.071
1126 0 136.075 13.3896 1822 114.327 890.485 414.304
1127 0 141.335 12.764 1804 116.277 890.472 412.165
1128 0 361.34 14.128 5105 125.794 889.479 283.984
1130 0 89.1696 12.7173 1134 109.99 890.84 441.407
1131 0 92.1384 12.644 1165 112.651 891.212 440.044
1132 0 95.2748 13.2879 1266 111.086 890.541 437.968
1133 0 100.085 13.1688 1318 110.066 890.483 437.831
1134 0 102.127 12.9936 1327 109.476 891.033 436.282
1135 0 103.135 13.6617 1409 102.067 890.809 438.35
1136 0 108.127 12.7535 1379 104.986 890.986 434.314
1137 0 113.116 13.9326 1576 104.239 890.773 432.864
1138 0 115.192 12.7527 1469 112.771 891.186 429.673
1139 0 120.114 13.737 1650 110.3 890.219 424.586
1140 0 126.152 14.4588 1824 107.706 890.786 425.508
1141 0 128.256 12.7558 1636 113.31 890.916 423.696
1142 0 129.237 12.7904 1653 112.88 890.761 423.232
1143 0 141.134 18.2664 2578 96.9856 891.862 413.735
1144 0 140.229 15.6459 2194 104.782 890.983 413.875
1145 0 142.363 12.707 1809 114.136 890.615 414.025
1146 0 145.264 14.8213 2153 110.18 890.985 410.996
1147 0 150.219 14.0461 2110 111.875 891.534 409.927
1148 0 156.292 13.9866 2186 111.793 890.882 408.738
1149 0 159.265 14.5292 2314 111.898 890.713 406.212
1150 0 166.222 13.506 2245 116.024 890.823 403.66
1151 0 170.265 14.4128 2454 116.215 890.857 397.809
1152 0 175.184 13.8654 2429 118.918 891.55 394.972
1153 0 180.208 14.2835 2574 119.135 891.17 395.605
1154 0 188.309 14.8639 2799 116.384 891.788 395.642
1155 0 193.377 15.5293 3003 114.289 891.81 391.435
1156 0 200.209 15.274 3058 113.702 891.619 390.33
1157 0 206.383 15.8637 3274 111.652 891.013 388.422
1158 0 213.287 15.6596 3340 112.278 890.962 384.689
1159 1 156.151 12.1869 1903 121.057 891.622 410.346
1160 0 161.313 13.6815 2207 118.788 891.086 405.574
1161 0 167.233 14.2615 2385 117.486 891.236 401.036
1162 0 173.193 15.7628 2730 112.754 891.149 399.524
1163 0 177.236 13.7274 2433 116.183 890.99 403.309
1164 0 182.278 13.7208 2501 117.416 890.765 395.161
1165 0 189.138 14.1802 2682 116.727 890.988 393.05
1166 0 196.164 14.9262 2928 114.483 890.661 391.72
1167 0 201.157 13.1936 2654 118.479 891.523 390.561
1168 0 208.114 14.2374 2963 116.452 891.262 388.055
1169 0 216.262 14.6489 3168 116.916 891.445 377.039
1170 0 222.306 14.3406 3188 118.426 890.825 376.687
1171 0 228.255 15.3206 3497 116.765 891.395 370.608
1172 0 233.464 14.6618 3423 119.471 890.91 367.308
1173 0 241.221 14.7168 3550 119.302 891.02 366.675
1174 0 250.329 15.4636 3871 117.295 890.438 364.265
1175 0 256.321 15.3714 3940 118.134 890.397 361.282
1176 0 263.534 15.1669 3997 119.512 890.773 353.334
1177 0 272.344 15.0765 4106 120.864 890.36 344.803
1178 0 279.294 13.8743 3875 124.011 890.603 345.101
1179 0 286.4 14.6334 4191 123.081 890.66 338.706
1180 0 298.419 14.5768 4350 123.197 890.532 334.968
1181 0 308.573 16.0545 4954 118.164 890.801 330.452
1182 0 318.4 14.2714 4544 122.207 891.123 320.309
1183 1 94.1113 10.4238 981 99.4444 891.162 438.487
1184 0 97.1841 10.9483 1064 97.5648 890.896 438.459
1185 0 100.381 9.42406 946 99.3732 890.741 435.705
1186 0 103.219 9.56215 987 98.459 890.481 435.202
1187 0 108.196 9.55676 1034 98.6673 890.689 432.383
1188 0 113.342 9.88158 1120 102.843 890.635 427.584
1189 0 117.112 10.0331 1175 101.52 890.599 429.595
1190 1 49.0759 8.80268 432 88.5926 889.866 466.625
1191 0 48.104 8.44004 406 90.2832 889.562 465.865
1192 0 48.0494 9.78159 470 87.4277 890.623 464.255
1193 0 47.0688 7.30845 344 91.2645 891.18 470.206
1194 0 49.0661 9.45664 464 90.8039 890.72 466.634
1195 0 47.0202 8.67712 408 93.0441 890.216 468.471
1196 0 50.0566 10.0686 504 92.6131 890.635 465.986
1197 0 49.0203 10.9751 538 92.7045 890.883 466.974
1198 0 49.0654 10.109 496 95.3669 890.827 467.815
1199 1 148.315 12.642 1875 105.063 890.68 416.643
1200 0 150.228 10.5972 1592 108.938 890.136 414.928
1201 0 155.235 11.4922 1784 106.386 890.634 416.175
1202 0 158.404 9.96185 1578 109.003 891.111 415.47
1203 0 162.211 11.8118 1916 105.739 891.396 413.491
1204 0 168.435 13.1327 2212 102.46 891.222 412.51
1205 0 173.522 13.5544 2352 102.572 891 407.932
1206 0 178.191 13.4013 2388 102.173 890.937 406.285
1207 0 182.212 12.222 2227 104.313 890.215 404.521
1208 1 56.0932 12.6575 710 98.1972 890.69 465.766
1209 0 57.0548 12.5318 715 98.4601 891.315 466.72
1210 0 56.0789 11.9653 671 101.729 891.626 465.013
1211 0 56.0789 12.0901 678 145.066 892.618 464.919
1212 0 56.2022 12.6507 711 100.207 891.28 464.947
1213 0 59.0825 13.4558 795 96.9094 891.045 466.098
1214 0 57.1371 11.3412 648 103.404 891.29 465.27
1215 0 59.1267 12.6001 745 99.3973 891.64 465.957
1216 0 59.0647 11.6482 688 102.343 890.608 464.908
1217 0 56.0403 10.3854 582 105.294 891.462 465.428
1218 0 59.0615 11.8521 700 101.299 889.783 465.124
1219 0 60.1158 11.8272 711 100.383 889.561 465.609
1220 0 61.0499 11.4496 699 101.558 891.273 465.598
1221 0 59.0247 10.9954 649 102.085 891.163 466.824
1222 0 61.0635 11.4962 702 101.087 890.936 465.873
1223 0 58.0977 11.6528 677 102.139 891.106 464.826
1224 0 60.0394 11.7423 705 100.991 891.393 466.353
1225 0 60.0505 12.3896 744 99.4462 891.38 466.067
1226 0 60.0632 12.2871 738 100.062 890.835 465.175
1227 0 61.0984 11.3915 696 101.177 891.115 465.782
