time division length width area intensity CMx CMy
0 0 68.2568 14.0352 958 120.889 586.474 452.754
1 0 69.2692 13.3681 926 122.63 586.064 454.527
2 0 69.233 12.6529 876 126.414 585.635 451.12
3 0 73.4012 13.7872 1012 121.125 584.589 452.595
4 0 75.5751 12.7291 962 123.759 585.126 450.938
5 0 80.2345 12.9121 1036 122.253 584.817 450.353
6 0 81.2168 13.1623 1069 122.309 585.155 449.472
7 0 82.2091 12.821 1054 124.808 586.471 448.711
8 1 95.2826 20.2031 1925 99.3392 586.04 438.498
9 0 92.3424 14.5654 1345 118.349 584.988 443.335
10 0 92.256 13.159 1214 124.055 583.941 442.96
11 0 97.4749 14.8859 1451 118.369 585.471 441.31
12 0 99.4002 13.9135 1383 121.675 587.069 443.785
13 0 101.339 14.1505 1434 123.368 585.757 440.542
14 0 104.319 14.1105 1472 124.34 587.465 437.745
15 0 109.208 13.7902 1506 125.088 586.384 438.445
16 0 111.283 14.5126 1615 125.916 586.184 434.035
17 0 114.416 14.9367 1709 126.379 585.266 432.082
18 0 121.429 17.0058 2065 119.47 586.218 428.313
19 0 122.338 13.8142 1690 129.872 586.469 430.46
20 0 127.304 13.9823 1780 130.108 586.751 430.069
21 0 131.251 14.7503 1936 129.292 587.14 424.373
22 1 70.2086 13.0041 913 125.981 585.989 454.009
23 0 73.2031 12.3902 907 131.021 586.042 451.838
24 0 76.1683 13.1026 998 128.616 586.953 450.707
25 0 80.1045 13.4824 1080 127.906 586.878 449.996
26 0 82.1538 12.5131 1028 129.811 586.603 449.485
27 0 86.248 13.7047 1182 126.089 586.841 446.586
28 0 88.112 13.8233 1218 127.85 587.108 445.332
29 0 91.1022 13.194 1202 129.133 586.782 444.473
30 0 91.0951 12.69 1156 132.883 587.776 440.683
31 0 95.127 13.256 1261 129.903 587.501 441.723
32 0 99.108 13.1775 1306 129.419 586.734 438.861
33 0 102.151 13.8031 1410 128.956 587.903 437.601
34 0 104.079 12.9421 1347 131.589 586.893 434.278
35 0 108.127 13.5767 1468 129.275 586.602 433.7
36 0 109.164 13.6217 1487 129.734 586.592 430.149
37 0 111.1 12.1062 1345 135.197 585.99 426.3
38 0 117.125 13.9082 1629 127.822 585.766 425.984
39 0 120.148 12.7426 1531 131.278 585.848 420.664
40 0 126.228 13.8559 1749 127.667 585.438 416.977
41 0 131.178 13.1653 1727 130.135 587.007 413.66
42 1 64.1482 10.6005 680 130.972 586.924 446.921
43 0 65.0642 12.7105 827 126.366 587.244 445.453
44 0 66.0973 12.4967 826 126.983 587.475 444.829
45 0 68.1834 13.3757 912 125.571 586.775 442.667
46 0 73.1705 12.5597 919 126.276 586.648 443.652
47 0 74.1219 13.3968 993 124.676 586.083 442.157
48 0 76.1545 13.2231 1007 124.993 586.859 440.802
49 0 79.1046 12.4898 988 127.705 587.065 438.743
50 0 79.1016 11.3272 896 131.413 586.623 437.022
51 0 81.1798 11.259 914 133.419 586.923 433.956
52 0 83.0957 11.7936 980 133.74 586.707 433.331
53 0 84.0402 12.3036 1034 132.337 586.983 433.121
54 0 88.0756 12.9661 1142 130.343 586.026 432.554
55 0 92.081 12.3804 1140 132.756 586.687 428.968
56 0 93.0735 12.2376 1139 135.399 586.092 427.677
57 0 93.0611 12.1748 1133 145.809 585.064 427.563
58 0 103.121 12.8684 1327 133.625 586.83 426.343
59 0 107.103 13.0622 1399 134.327 586.307 420.485
60 0 112.136 13.011 1459 134.993 585.984 419.467
61 0 119.13 12.5661 1497 136.507 586.089 418.26
62 0 119.109 13.8024 1644 133.988 586.925 416.291
63 1 69.0894 12.0134 830 122.749 587.27 447.154
64 0 72.1385 10.5353 760 124.082 587.203 446.421
65 0 74.0759 11.5692 857 125.992 587.016 440.84
66 0 75.1039 11.2111 842 123.593 587.414 440.096
67 0 82.2232 11.5418 949 131.802 586.445 441.19
68 0 84.145 12.5854 1059 129.029 586.903 438.377
69 0 88.2605 12.0439 1063 130.053 586.996 437.032
70 0 89.0509 12.4872 1112 129.414 586.326 437.523
71 0 93.1142 13.3385 1242 127.009 586.983 436.598
72 0 93.1385 11.5742 1078 133.623 586.07 433.141
73 0 98.1165 12.2609 1203 131.415 586.264 431.039
74 0 102.091 13.2039 1348 127.759 586.682 431.826
75 0 103.142 13.4378 1386 128.153 586.724 429.842
76 0 107.133 12.4051 1329 131.795 586.994 425.979
77 0 109.098 11.5218 1257 133.99 587.855 424.242
78 0 113.093 12.6267 1428 129.155 586.849 424.361
79 0 122.103 13.1282 1603 126.519 587.132 422.986
80 0 117.169 11.8376 1387 133.68 587.092 413.639
81 0 125.093 10.856 1358 134.6 586.848 414.558
82 0 129.098 11.8825 1534 131.01 587.163 411.529
83 0 138.222 11.5322 1594 128.007 587.484 412.765
84 1 76.0491 8.87585 675 117 587.489 443.301
85 0 70.0455 8.6658 607 120.6 587.496 439.104
86 0 83.1027 9.00091 748 116.623 587.096 449.836
87 0 86.1524 10.5743 911 113.965 587.161 447.165
88 0 89.097 10.7074 954 112.531 587.28 448.517
89 0 91.0604 9.88354 900 111.764 586.839 438.111
90 0 97.1067 11.9044 1156 110.763 586.862 445.083
91 0 96.2397 9.78806 942 117.835 586.865 437.376
92 0 101.1 11.7211 1185 115.691 587.527 438.679
93 0 104.131 12.0714 1257 121.517 586.722 439.219
94 0 107.16 12.2527 1313 125.897 586.84 434.336
95 0 108.131 11.1254 1203 128.905 586.506 434.835
96 0 114.178 12.1915 1392 125.219 585.917 432.351
97 0 119.206 11.1655 1331 128.161 586.313 428.799
98 0 122.229 12.9511 1583 122.881 585.79 424.387
99 0 124.286 12.3184 1531 113.368 586.752 426.075
100 0 130.278 13.1181 1709 113.001 586.464 424.485
101 0 133.261 12.3592 1647 114.688 586.625 421.778
102 0 137.41 11.9933 1648 115.508 586.175 420.845
103 1 78.2526 11.7312 918 110.259 586.156 449.244
104 0 79.1859 11.3404 898 112.749 585.843 446.007
105 0 76.1047 11.5236 877 116.504 585.891 443.871
106 0 82.1417 12.8437 1055 110.115 585.284 447.584
107 0 83.1731 11.1575 928 116.357 586.718 440.206
108 0 83.1084 11.7557 977 115.504 586.506 438.734
109 0 87.127 12.6826 1105 113.758 585.566 437.057
110 0 88.0853 11.9884 1056 115.844 585.945 435.473
111 0 91.1688 12.9211 1178 113.455 586.368 436.9
112 0 92.083 13.4878 1242 113.009 585.779 433.385
113 0 95.1187 12.8786 1225 113.149 585.709 435.688
114 0 98.1858 13.8615 1361 112.417 585.937 430.578
115 0 99.1336 13.6886 1357 113.901 585.631 430.234
116 0 104.076 13.2307 1377 113.355 585.386 430.399
117 0 105.124 12.1856 1281 114.76 585.728 427.384
118 0 108.099 14.237 1539 109.927 585.112 429.812
119 0 113.182 13.2353 1498 111.724 585.173 427.797
120 0 117.17 13.0239 1526 113.261 585.535 423.177
121 1 60.0678 11.1541 670 108.936 586.313 449.725
122 0 66.0276 11.7224 774 108.461 586.36 454.879
123 0 70.166 12.3279 865 111.986 585.46 456.344
124 0 71.1184 11.9097 847 106.464 584.974 456.373
125 0 73.1137 12.2822 898 106.835 584.826 455.596
126 0 74.0938 11.6609 864 109.044 585.362 452.88
127 0 77.1235 12.7847 986 107.09 584.997 450.653
128 0 80.0753 10.9272 875 111.222 585.178 453.783
129 0 84.1111 13.9458 1173 105.66 584.922 449.336
130 0 84.1042 12.3418 1038 110.774 585.364 449.898
131 0 89.1248 12.7237 1134 109.399 584.936 448.038
132 0 92.2176 12.9151 1191 109.77 586.313 444.878
133 0 93.1099 11.3629 1058 114.371 584.888 442.982
134 0 99.0802 13.6455 1352 108.033 585.08 441.167
135 0 101.141 11.8943 1203 110.06 585.751 444.656
136 0 102.084 12.1175 1237 111.847 585.829 436.632
137 0 107.157 12.2251 1310 110.321 585.22 434.957
138 0 110.121 12.8314 1413 108.901 585.931 434.655
139 0 114.115 12.207 1393 109.871 585.793 432.011
140 0 116.073 11.6736 1355 110.63 586.05 428.384
141 0 122.139 13.0835 1598 106.603 585.955 426.546
142 0 123.202 12.4186 1530 108.779 585.711 423.587
143 0 132.328 12.2272 1618 109.467 585.857 423.297
144 0 136.279 13.1421 1791 107.754 586.159 422.162
145 0 139.275 11.5527 1609 112.586 585.991 415.362
146 0 145.212 12.9535 1881 109.594 585.696 416.744
147 0 149.221 11.9286 1780 113.45 585.442 410.787
148 0 155.246 12.6187 1959 112.232 585.491 408.793
149 0 161.184 12.7246 2051 112.283 585.784 407.76
150 0 165.187 11.7564 1942 113.954 585.79 407.412
151 0 173.243 12.849 2226 111.858 584.677 402.526
152 0 177.284 13.1371 2329 113.048 584.935 398.261
153 0 187.355 14.0162 2626 111.248 585.794 396.242
154 1 96.1288 11.2661 1083 98.506 585.491 446.378
155 0 97.1346 8.8331 858 104.089 585.316 441.641
156 0 101.148 10.3611 1048 101.66 585.097 439.553
157 0 104.107 10.7774 1122 102.742 585.814 437.664
158 0 109.14 10.7293 1171 101.783 585.722 437.264
159 0 112.326 9.78405 1099 104.444 585.318 433.19
160 0 116.099 10.2757 1193 104.585 585.478 430.556
161 1 50.1172 11.8921 596 91.1258 586.341 466.841
162 0 51.0329 11.8943 607 91.7463 586.221 465.781
163 0 52.1237 10.4175 543 95.9429 585.733 464.33
164 0 54.0458 10.8241 585 95.4342 585.863 463.612
165 0 55.0393 10.2472 564 97.1294 585.332 462.457
166 0 58.0711 10.9865 638 96.6614 585.577 462.185
167 0 58.1216 10.2372 595 99.1866 585.728 462.66
168 0 57.1022 10.9278 624 101.535 585.2 462.133
169 0 62.125 7.95171 494 106.02 585.771 463.955
170 0 62.0448 10.7342 666 101.674 585.661 462.309
171 0 65.0574 11.6666 759 101.404 585.951 459.642
172 0 64.1698 11.7189 752 102.407 585.963 459.226
173 0 66.11 10.543 697 104.406 585.878 460.007
174 0 68.0559 11.2555 766 104.106 585.364 457.701
175 0 69.067 10.6274 734 105.283 584.875 454.624
176 0 72.0588 11.6016 836 102.343 584.367 457.635
177 0 74.132 10.7916 800 105.211 585.678 456.499
178 0 78.071 11.9891 936 102.173 585.764 455.691
179 0 80.1125 11.9832 960 104.588 585.722 451.662
180 0 83.191 11.7441 977 105.579 585.544 450.858
181 0 85.0461 12.2992 1046 105.097 585.206 448.875
182 0 88.09 11.1023 978 105.6 584.816 448.317
183 0 93.0963 12.2024 1136 103.938 584.967 445.082
184 0 95.1088 10.5353 1002 104.326 585.404 440.899
185 0 98.0637 11.8392 1161 102.776 585.396 439.337
186 0 99.1222 11.0268 1093 107.882 585.576 435.229
187 0 104.158 11.9626 1246 105.23 585.874 434.866
188 0 106.159 11.0212 1170 106.707 584.594 429.851
189 0 108.105 10.5268 1138 109.422 585.092 428.269
190 0 111.12 11.5191 1280 108.353 584.418 426.447
191 0 111.12 12.212 1357 104.385 584.95 425.545
192 0 115.235 11.3074 1303 104.85 585.25 425.168
193 0 121.253 10.4657 1269 105.587 585.221 419.561
194 0 131.215 10.1132 1327 103.273 585.215 419.532
195 0 131.075 12.6264 1655 100.691 584.673 416.315
196 0 134.143 12.0543 1617 101.358 584.752 420.136
197 0 137.162 10.812 1483 103.629 584.732 418.881
198 0 141.191 10.9639 1548 103.824 585.245 416.644
199 1 98.4337 13.1865 1298 81.5385 585.388 440.464
200 0 97.2448 13.0701 1271 83.5028 585.254 439.631
201 0 99.1231 17.6346 1748 75.7271 585.962 433.965
202 0 102.209 14.8226 1515 82.5082 585.613 435.918
203 0 100.237 14.4059 1444 85.7015 585.366 438.193
204 0 110.241 16.8812 1861 80.7034 585.615 429.207
205 0 110.148 13.954 1537 89.8985 585.179 437.736
206 0 110.172 17.7994 1961 85.3401 584.612 428.906
207 0 112.197 16.0076 1796 94.1576 585.54 430.276
208 0 113.311 15.2853 1732 95.8868 585.481 429.816
209 0 111.188 13.4816 1499 100.288 584.57 433.313
210 1 59.0435 11.6016 685 100.819 585.445 460.479
211 0 62.2451 12.5311 780 99.6359 584.958 460.387
212 0 64.1506 12.1121 777 106.291 585.393 458.911
213 0 67.1396 13.256 890 106.349 585.094 458.912
214 0 69.131 13.1634 910 107.043 587.306 457.021
215 0 70.0545 14.0462 984 104.777 586.011 456.545
216 0 73.058 13.7973 1008 99.7569 585.861 456.443
217 0 72.0737 11.9739 863 107.416 584.933 454.817
218 0 77.044 15.5106 1195 100.334 585.125 453.85
219 0 80.0407 13.793 1104 103.085 585.672 452.058
220 0 81.0432 12.845 1041 107.117 585.622 449.761
221 0 87.1032 12.9042 1124 107.642 585.73 449.076
222 0 89.2136 13.7983 1231 104.548 586.029 448.128
223 0 93.0785 13.9882 1302 108.199 584.997 444.859
224 0 93.0507 13.1111 1220 110.397 584.683 445.655
225 0 97.1104 14.0356 1363 109.117 585.618 441.704
226 0 100.068 12.9511 1296 112.485 585.537 442.014
227 0 102.141 13.5401 1383 111.691 585.31 440.018
228 0 106.243 14.1374 1502 111.459 585.084 437.93
229 1 57.2325 12.8423 735 113.486 584.933 460.781
230 0 60.0494 12.6562 760 115.686 585.042 461.111
231 0 62.0744 13.9188 864 114.806 585.499 458.933
232 0 63.0524 13.005 820 116.263 585.296 460.24
233 0 67.0677 13.2851 891 116.246 585.277 458.063
234 0 69.0556 13.4674 930 114.08 585.812 457.909
235 0 72.1184 14.0186 1011 113.528 585.707 457.124
236 0 73.0616 14.8368 1084 112.496 585.525 455.033
237 0 74.0357 13.561 1004 114.793 586.038 456.337
238 0 78.0882 13.9714 1091 113.06 585.686 454.002
239 0 80.0509 13.379 1071 115.173 585.438 451.496
240 0 85.0524 15.414 1311 108.124 584.78 451.892
241 0 85.1109 13.4178 1142 113.531 584.989 451.657
242 0 89.1117 14.2406 1269 111.984 585.414 448.589
243 0 92.0957 14.2569 1313 112.229 585.098 445.277
244 0 95.067 14.4319 1372 110.479 585.555 445.426
245 0 97.0994 13.1927 1281 112.447 585.804 444.117
246 0 100.127 14.7014 1472 112.758 585.527 441.33
247 0 101.117 12.8366 1298 117.149 585.315 438.827
248 0 107.106 13.5847 1455 114.913 584.709 435.004
249 0 109.21 12.0501 1316 119.413 585.306 416.936
250 0 114.119 13.1529 1501 114.592 584.652 425.708
251 1 57.189 11.2259 642 110.935 585.492 451.025
252 0 63.0574 11.2913 712 106.796 585.458 453.82
253 0 65.0332 11.0559 719 104.555 585.47 452.211
254 0 66.1437 10.9156 722 104.022 586.159 447.806
255 0 66.23 12.668 839 101.251 585.017 446.178
256 0 69.0462 10.9492 756 103.335 584.839 444.96
257 0 73.0926 11.8343 865 100.26 585.369 444.029
258 0 78.1414 10.8265 846 101.396 585.396 444.137
259 0 80.072 12.4013 993 97.9899 585.48 442.11
260 0 84.4361 11.7012 988 100.439 584.832 442.045
261 0 86.1306 13.7001 1180 95.7568 585.682 440.095
262 0 89.2719 10.5632 943 101.421 585.733 437.283
263 0 88.1525 11.3667 1002 101.902 585.344 433.441
264 1 99.2131 12.7604 1266 102.795 585.218 439.686
265 0 101.104 11.869 1200 105.204 585.348 437.528
266 0 105.28 12.443 1310 104.46 585.424 436.38
267 0 108.268 12.6445 1369 106.532 584.451 430.736
268 0 111.215 13.2806 1477 105.934 585.148 432.508
269 0 115.367 12.976 1497 107.122 585.212 426.679
270 0 120.23 12.7672 1535 107.918 584.513 430.195
271 0 124.328 12.8209 1594 109.132 585.644 424.999
272 0 124.33 12.8127 1593 127.949 586.639 424.986
273 0 133.307 13.9528 1860 105.668 584.586 419.168
274 0 136.184 12.9751 1767 107.643 585.27 416.065
275 0 144.304 13.5686 1958 105.642 585.062 416.6
276 1 82.3288 11.4784 945 102.701 586.222 449.687
277 0 85.2969 12.1575 1037 102.406 585.491 446.073
278 0 87.3064 11.6715 1019 105.479 585.856 445.157
279 0 93.2643 13.7244 1280 101.917 585.873 442.745
280 0 96.3181 13.6942 1319 101.847 586.108 440.744
281 0 99.2098 13.0431 1294 102.142 585.871 440.706
282 0 102.274 13.2488 1355 102.015 585.117 439.573
283 0 105.265 13.0718 1376 102.504 585.93 438.51
284 0 110.384 12.4474 1374 103.681 585.266 434.685
285 0 112.304 13.7039 1539 101.706 585.516 430.3
286 0 115.291 12.0391 1388 104.793 586.125 432.452
287 0 119.118 12.5338 1493 103.524 585.672 425.599
288 0 123.507 13.2138 1632 100.779 586.236 426.999
289 0 128.363 12.7062 1631 101.582 585.798 422.911
290 0 131.15 12.4056 1627 102.331 585.15 419.852
291 1 66.055 10.3399 683 105.262 585.807 444.269
292 0 71.1878 12.1369 864 98.1308 585.823 448.976
293 0 70.055 12.8328 899 99.4527 584.802 438.821
294 0 71.0872 11.1553 793 102.735 584.598 437.661
295 0 74.104 11.5378 855 101.292 585.85 438.08
296 0 73.1261 12.5673 919 101.138 585.552 435.334
297 0 80.1651 11.6884 937 100.86 585.347 433.564
298 0 82.2038 12.7975 1052 98.1435 584.952 435.621
299 0 86.1017 12.6362 1088 99.0083 585.12 438.906
300 0 93.0855 11.989 1116 98.2168 584.553 438.771
301 0 95.2811 12.8252 1222 96.6759 584.8 437.608
302 0 92.2446 12.4777 1151 97.8914 585.195 437.147
303 0 101.26 13.3814 1355 97.2967 585.562 431.452
304 0 98.158 10.371 1018 106.534 585.531 426.614
305 0 108.186 14.3365 1551 97.7666 586.176 424.478
306 0 108.186 14.2995 1547 133.727 586.136 424.206
307 0 113.148 12.1346 1373 104.729 585.817 421.633
308 0 115.296 13.5391 1561 103.311 585.703 417.4
309 1 124.337 13.3749 1663 102.708 586.1 416.482
310 0 127.231 13.8095 1757 102.779 585.648 416.724
311 0 131.222 13.3971 1758 104.391 586.152 410.701
312 0 135.195 13.3733 1808 105.193 586.268 409.594
313 0 140.244 13.6975 1921 103.946 586.04 410.879
314 0 143.269 13.3245 1909 106.035 585.496 405.142
315 0 146.095 13.0326 1904 108.33 586.155 400.04
316 0 154.132 12.6709 1953 108.817 586.124 399.816
317 0 159.197 15.0128 2390 104.177 586.329 399.271
318 0 166.308 12.7174 2115 108.938 585.762 397.945
319 0 174.507 13.9994 2443 105.886 585.91 392.673
320 0 179.293 13.4473 2411 107.788 586.548 392.959
321 1 103.309 11.2284 1160 103.87 586.29 430.691
322 0 103.177 10.9326 1128 106.595 586.155 428.864
323 0 109.303 12.5706 1374 104.907 586.517 430.162
324 0 112.169 12.0354 1350 106.116 586.284 429.838
325 0 117.175 13.1513 1541 102.838 586.94 429.384
326 0 120.306 13.1581 1583 103.64 585.8 423.302
327 0 126.218 13.334 1683 102.529 586.364 426.882
328 0 131.237 13.7385 1803 101.693 586.359 424.911
329 0 136.133 13.8761 1889 101.986 586.72 423.14
330 0 140.077 12.8643 1802 105.262 586.322 418.747
331 0 144.269 12.6014 1818 104.917 585.856 416.669
332 0 149.384 13.2009 1972 104.659 585.737 405.209
333 0 154.327 13.29 2051 104.403 585.672 407.333
334 0 160.212 14.2624 2285 102.466 585.781 410.263
335 0 163.247 13.207 2156 108.259 586.044 399.176
336 0 170.346 13.6369 2323 106.881 585.796 399.474
337 0 174.204 13.2144 2302 108.458 586.215 396.082
338 0 180.164 13.4322 2420 108.174 585.878 395.265
339 0 185.303 12.3743 2293 110.077 585.478 389.089
340 0 193.251 14.7839 2857 105.334 585.562 386.858
341 0 198.213 13.2332 2623 109.065 585.503 384.972
342 0 206.241 14.3521 2960 105.679 586.278 388.335
343 0 210.293 13.8474 2912 108.826 586.113 382.541
344 0 217.354 14.4143 3133 107.61 585.265 376.751
345 0 225.413 13.961 3147 108.757 584.887 371.745
346 0 231.304 13.8951 3214 108.83 584.735 369.746
347 0 240.568 14.4367 3473 107.845 585.311 362.969
348 0 248.452 14.0671 3495 109.088 585.993 357.125
349 0 258.426 14.9559 3865 106.429 585.081 359.525
350 0 265.315 14.2623 3784 108.048 585.937 351.272
351 0 335.411 13.6937 4593 110.424 585.235 322.528
352 0 364.533 16.0507 5851 106.811 584.791 294.543
353 0 321.884 22.0545 7099 87.2044 584.709 305.393
354 0 323.532 23.8647 7721 86.8432 584.085 304.325
355 0 325.61 16.5044 5374 104.261 584.637 311.363
356 1 77.1673 10.0042 772 89.1814 585.685 449.312
357 0 79.2496 10.2083 809 90.4277 585.807 446.213
358 0 84.2023 9.35841 788 92.7944 585.753 445.731
359 0 84.1555 10.3499 871 91.8852 585.433 444.954
360 0 85.1118 9.66964 823 94.4921 585.361 441.761
361 0 90.21 10.3536 934 92.2462 585.015 443.944
362 0 90.3481 9.20882 832 95.5216 585.188 440.958
363 0 96.3583 8.99766 867 93.4591 585.954 443.32
364 0 99.5214 13.5448 1348 88.0341 585.053 437.358
365 0 102.19 11.3514 1160 92.7259 585.614 434.35
366 0 101.195 8.70593 881 97.983 586.066 430.478
367 0 108.191 11.831 1280 91.8789 585.321 433.302
368 0 110.174 9.9842 1100 95.8164 586.524 430.805
369 0 121.252 15.6698 1900 83.0379 586.344 420.245
370 0 120.246 13.7468 1653 90.003 586.268 419.744
371 0 121.207 10.0241 1215 98.4634 585.868 425.757
372 0 130.189 16.4146 2137 85.8007 586.591 413.862
373 0 129.321 11.862 1534 96.9733 586.214 410.977
374 0 133.251 11.3545 1513 98.5354 586.539 416.666
375 1 83.142 9.09287 756 96.0093 586.112 443.631
376 0 82.0861 8.73473 717 94.622 586.612 442.321
377 0 86.286 10.6622 920 94.7674 585.578 442.841
378 0 89.0972 12.5705 1120 91.5071 585.631 444.492
379 0 89.2344 11.3969 1017 88.4425 584.868 447.532
380 0 92.2491 11.3063 1043 89.7296 584.931 444.111
381 0 95.2314 11.3933 1085 90.2627 585.02 441.497
382 0 97.1952 10.6693 1037 91.757 585.42 441.734
383 0 99.2372 11.407 1132 92.2703 585.425 438.208
384 0 103.191 12.3751 1277 90.3359 584.927 440.959
385 0 104.195 11.2674 1174 93.4583 585.911 439.498
386 1 17.0259 7.75288 132 73.3106 586.068 482.439
387 0 14.0082 6.85314 96 73.6042 586.26 484.344
388 0 14.0342 3.49146 49 76.9592 586.531 483.776
389 0 11.0065 3.72508 41 76.8293 586.415 484.683
390 0 14.0034 7.21254 101 75.7723 586.257 480.277
391 0 11.0005 3.63621 40 77.675 587.425 481.2
392 0 14.0061 5.92601 83 76.3374 587.494 482.41
393 0 12.0082 4.16381 50 72.88 587.78 479.18
394 0 12.0047 9.24638 111 72.8739 587.153 483.297
395 0 11.0034 5.18023 57 72.2456 586.79 481.737
396 0 11.0007 6.90864 76 73.671 586.829 482.197
397 0 13.0005 5.92285 77 77.3766 587.104 482.13
398 0 15.0123 3.46382 52 79.6346 586.615 481.635
399 1 88.1438 7.72602 681 87.8502 585.598 446.461
400 0 87.1162 8.74694 762 87.168 585.416 443.373
401 0 90.2126 7.7151 696 88.3161 585.328 445.714
402 0 93.2814 11.0526 1031 84.6217 585.545 442.387
403 0 96.2064 10.2696 988 82.4433 584.886 441.307
404 0 98.1059 9.64264 946 83.2812 585.13 439.98
405 0 99.1936 9.8595 978 83.407 586.149 440.548
406 0 102.144 8.57611 876 85.5902 585.548 435.414
407 0 106.154 8.51594 904 85.8706 585.853 428.512
408 0 107.181 9.01279 966 85.8219 586.024 432.102
409 1 39.0182 4.28006 167 79.1976 585.569 471.15
410 0 39.0117 3.33233 130 83.2 585.469 468.808
411 0 42.0177 3.04633 128 82.4609 584.711 468.961
412 0 42.0143 5.06971 213 83.6338 584.502 461.127
413 0 46.0216 6.82288 314 80.0987 584.901 465.997
414 0 42.0237 1.11842 47 90.1064 584.681 464.426
415 0 46.0601 5.25401 242 84.0455 584.521 467.504
416 1 31.0463 5.73337 178 84.6798 584.034 461.742
417 1 13.0012 5.92254 77 75.1948 584.377 481.935
418 0 14.0045 5.0698 71 76.5916 585.62 483.592
419 0 14.0032 5.49874 77 76.8701 586.169 482.662
420 0 11.0059 4.90647 54 75.4074 585.704 485.833
421 0 13.0009 6.30723 82 72.9024 586.073 485.72
422 0 16.0019 3.68706 59 76.5424 586.237 483.983
423 0 11.0003 1.99995 22 78.7273 585.5 484.045
424 0 12.004 3.66544 44 76.6591 585.886 483.5
425 0 13.0009 0.999931 13 78.3846 585.385 484.923
426 0 15.0025 6.06566 91 73.4945 586.044 483.846
427 0 11.0012 2.18158 24 79.2917 586.75 482.667
428 0 11.0012 4.45406 49 72.7143 587.653 486.592
429 1 106.373 8.82744 939 86.8445 586.115 432.438
430 0 110.262 10.4388 1151 84.7168 586.013 429.365
431 0 110.237 7.13012 786 89.7226 585.487 430.681
432 0 117.351 8.91343 1046 88.9885 585.98 425.591
433 0 113.386 10.1159 1147 88.4682 586.192 425.428
434 1 233.725 11.6847 2731 99.7704 585.205 365.165
435 0 233.398 11.474 2678 103.072 585.687 363.379
436 1 135.386 10.326 1398 94.887 585.332 417.874
437 0 136.323 10.5045 1432 94.4825 586.016 416.96
438 0 143.265 9.9396 1424 94.3827 585.305 416.348
439 0 148.252 11.784 1747 92.4688 584.28 410.758
440 0 152.291 11.2876 1719 92.7056 584.485 410.48
441 1 84.1658 9.9803 840 85.0512 584.536 443.98
442 0 85.1724 11.6235 990 83.198 584.726 443.044
443 0 93.2531 11.4849 1071 82.2876 585.865 443.736
444 0 93.1811 10.7854 1005 84.1234 586.662 442.348
445 0 96.1699 9.5664 920 86.5217 584.927 442.654
446 0 101.116 12.3126 1245 83.1775 585.316 438.799
447 0 100.158 11.6816 1170 91.6444 585.879 438.88
448 0 102.152 10.8368 1107 94.7949 585.454 431.93
449 0 101.167 10.7249 1085 96.7853 584.955 429.272
450 0 108.297 10.7482 1164 94.6959 584.891 428.804
451 0 112.268 12.4524 1398 91.7303 585.076 430.389
452 0 116.204 11.738 1364 93.5946 585.658 427.082
453 0 119.163 12.42 1480 92.4392 585.562 420.741
454 0 122.297 12.5024 1529 92.5363 585.963 423.614
455 0 123.247 10.2639 1265 98.019 585.545 418.865
456 0 129.169 12.3405 1594 94.5075 584.546 416.209
457 0 131.295 11.7445 1542 97.8048 584.187 409.711
458 1 72.2659 10.7658 778 93.1992 583.913 445.427
459 0 77.1033 9.72721 750 94.568 584.283 443.035
460 0 82.1429 10.3235 848 92.5035 584.583 440.022
461 0 80.2599 11.1886 898 92.0757 584.727 441.233
462 0 84.0857 10.9293 919 90.3983 584.705 443.453
463 0 85.0945 10.9643 933 90.5445 584.155 446.487
464 0 90.2113 11.7169 1057 88.7039 584.516 444.66
465 0 90.3672 10.9 985 92.7634 584.364 438.489
466 0 92.0395 12.4729 1148 88.9652 584.646 442.065
467 0 96.1407 11.9928 1153 91.8352 584.858 436.966
468 0 100.194 11.6873 1171 91.5107 585.087 437.882
469 0 101.208 11.017 1115 93.8368 586.025 437.587
470 0 105.188 11.8455 1246 92.8475 585.274 435.521
471 0 110.131 11.9131 1312 93.2454 585.906 432.107
472 0 113.084 7.11859 805 102.139 585.193 435.241
473 0 120.125 12.1207 1456 93.2266 584.791 430.577
474 0 117.099 11.7251 1373 95.8725 584.884 425.445
475 0 121.171 11.9913 1453 96.5072 585.094 422.197
476 0 125.093 11.2636 1409 96.3286 585.256 426.595
477 1 71.0962 8.80497 626 100.363 587.171 448.246
478 0 70.1281 9.76784 685 100.366 586.864 446.667
479 0 77.1021 13.0217 1004 92.5697 585.632 446.411
480 0 82.1247 11.8965 977 95.3163 584.985 449.371
481 0 87.2435 12.8606 1122 93.6355 585.506 447.47
482 0 85.1021 13.1959 1123 93.7845 584.571 446.346
483 0 89.0618 12.7327 1134 95.0882 584.987 444.011
484 0 88.1302 12.595 1110 95.7027 584.5 440.532
485 0 91.0716 12.5945 1147 95.7175 585.419 437.5
486 0 92.1133 14.1999 1308 93.0566 585.165 438.966
487 0 87.1666 11.2658 982 100.864 586.616 438.836
488 0 87.1464 9.82255 856 104.668 585.65 439.356
489 0 95.1378 12.0562 1147 100.888 585.668 434.724
490 0 98.0878 10.3377 1014 103.467 585.025 434.144
491 0 103.146 11.7019 1207 102.555 585.801 431.458
492 0 102.056 11.768 1201 104.63 585.939 426.493
493 0 109.089 11.8527 1293 104.538 585.717 423.134
494 0 112.108 11.1322 1248 106.042 585.529 425.716
495 0 118.343 11.1371 1318 106.038 585.884 420.713
496 0 125.188 12.1737 1524 103.519 586.215 419.388
497 0 126.19 12.8061 1616 102.489 585.997 417.652
498 0 131.311 12.4742 1638 104.497 585.474 409.231
499 1 78.1086 11.0103 860 98.4163 585.404 443.55
500 0 84.1446 10.1492 854 103.755 585.439 443.922
501 0 88.1902 11.135 982 101.901 584.563 447.135
502 0 92.1969 12.8529 1185 99.2059 585.09 447.143
503 0 95.2291 12.2547 1167 100.917 585.036 440.923
504 0 97.3702 11.2355 1094 102.561 584.904 442.349
505 0 102.39 11.9934 1228 100.927 584.053 440.309
506 0 99.1617 11.6678 1157 97.5618 584.261 441.413
507 0 101.196 10.8898 1102 100.053 583.729 437.93
508 0 103.195 10.9502 1130 100.463 584.322 435.192
509 0 106.124 11.5337 1224 99.933 584.779 431.689
510 0 110.076 12.5368 1380 98.2565 584.341 431.829
511 0 113.253 11.6642 1321 100.014 585.085 433.544
512 0 114.187 12.9612 1480 100.205 585.056 426.386
513 0 120.155 12.1926 1465 102.261 585.411 426.87
514 0 125.156 13.2954 1664 98.5757 584.556 423.831
515 0 128.18 12.9739 1663 99.291 584.951 421.13
516 1 72.0815 10.2245 737 101.119 584.372 446.152
517 0 71.0881 10.2971 732 101.902 584.62 446.373
518 0 80.0323 11.0455 884 98.5238 584.656 448.126
519 0 80.079 10.9517 877 99.1471 584.873 451.591
520 0 83.1546 11.653 969 97.2972 585.122 452.244
521 0 87.0977 12.5836 1096 96.2244 584.431 447.617
522 0 90.0603 12.6471 1139 97.0342 584.723 447.995
523 0 92.0878 12.0972 1114 98.219 584.688 442.597
524 0 95.2791 11.9963 1143 98.0481 584.76 446.731
525 0 98.1289 13.7166 1346 95.9324 586.205 443.305
526 0 100.077 12.1606 1217 98.4577 586.159 445.362
527 0 102.163 11.8731 1213 100.314 586.26 440.496
528 0 106.173 13.026 1383 99.2372 585.644 437.485
529 0 107.11 12.081 1294 102.253 585.294 436.404
530 0 111.141 13.2714 1475 99.5844 584.997 435.661
531 0 114.077 12.2724 1400 101.613 585.049 429.151
532 0 113.24 12.8929 1460 100.841 584.761 430.542
533 0 123.216 12.612 1554 100.202 584.792 428.446
534 1 68.2209 11.1403 760 96.7776 585.728 453.022
535 0 73.055 11.1833 817 102.963 585.342 453.574
536 0 75.0815 11.2544 845 100.643 585.26 458.63
537 0 80.1809 11.8357 949 99.1981 585.678 456.698
538 0 82.1139 11.2405 923 100.816 585.586 457.013
539 0 84.1734 12.3673 1041 98.951 585.67 453.585
540 0 87.1519 11.4627 999 101.415 586.201 449.651
541 0 88.1545 11.5366 1017 102.558 585.093 450.952
542 0 92.1657 12.4016 1143 100.418 584.757 451.084
543 0 95.0565 11.7404 1116 102.39 585.027 449.702
544 0 99.135 11.792 1169 102.805 584.762 448.749
545 0 99.1165 12.672 1256 104.539 584.874 443.52
546 0 103.158 12.4663 1286 105.945 586.009 441.963
547 0 108.251 12.1293 1313 104.682 585.976 440.415
548 0 109.143 13.2029 1441 103.783 586.416 439.86
549 0 110.271 11.4626 1264 109.078 586.21 436.379
550 0 117.202 13.9076 1630 103.514 585.614 434.19
551 0 120.23 12.6008 1515 106.747 585.879 432.292
552 1 65.1406 9.67139 630 108.313 586.576 457.678
553 0 66.0315 10.6161 701 109.442 586.385 453.548
554 0 69.077 11.9142 823 105.103 586.476 454.022
555 0 73.2945 12.825 940 96.8553 586.692 458.501
556 0 73.0808 12.4793 912 101.402 586.072 459.493
557 0 72.2376 11.4345 826 107.13 585.921 458.568
558 0 72.1482 10.4646 755 102.646 586.665 460.864
559 0 74.0672 11.7326 869 103.621 587.087 457.566
560 0 75.1036 13.1951 991 101.768 585.982 456.367
561 0 75.1347 11.8587 891 106.352 585.902 455.599
562 0 76.2165 12.9106 984 104.49 585.312 459.116
563 0 77.0836 12.9081 995 107.253 585.918 456.878
564 0 75.146 12.1231 911 111.62 585.068 452.831
565 0 79.2533 11.8481 939 109.62 585.865 456.309
566 0 81.0944 12.3066 998 107.947 585.222 454.496
567 0 83.1223 12.644 1051 105.929 584.881 451.737
568 0 86.1143 11.6125 1000 106.659 585.499 450.409
569 0 87.1095 10.9517 954 107.727 585.183 447.473
570 0 90.1783 11.2444 1014 105.225 585.526 448.686
571 0 94.1618 11.6714 1099 102.869 585.087 448.241
572 0 95.1205 11.9848 1140 102.762 584.74 445.663
573 0 97.1841 12.2139 1187 103.193 585.527 443.614
574 0 99.1169 12.3692 1226 104.602 585.29 440.219
575 0 100.159 10.7828 1080 107.806 585.418 443.216
576 0 103.182 12.9384 1335 105.512 585.444 438.667
577 0 108.147 11.0775 1198 108.375 584.924 439.02
578 0 112.373 12.1738 1368 106.964 585.106 435.38
579 0 115.389 12.1675 1404 108.108 584.983 434.752
580 1 63.0975 10.7294 677 106.439 584.83 457.876
581 0 67.2721 12.2339 823 109.385 584.515 460.576
582 0 68.083 11.9413 813 111.684 584.033 458.23
583 0 71.1032 12.081 859 111.76 585.135 459.455
584 0 70.05 10.8637 761 117.773 584.926 458.21
585 0 73.0598 12.086 883 115.454 584.762 456.359
586 0 76.0831 12.2629 933 116.242 584.89 455.683
587 0 78.1644 12.5761 983 117.177 585.195 456.166
588 0 79.1302 12.7385 1008 119.502 584.101 455.156
589 0 80.1464 11.8284 948 124.679 584.079 452.075
590 0 84.1294 12.2312 1029 122.598 583.812 453.734
591 0 86.1388 12.9326 1114 121.37 585.189 453.377
592 0 86.2297 12.258 1057 125.289 584.659 451.199
593 0 89.0517 12.2064 1087 125.771 584.338 449.47
594 0 92.0833 12.1303 1117 126.233 584.252 447.618
595 0 94.3118 12.0027 1132 127.355 583.938 444.717
596 0 99.0449 13.1456 1302 123.091 583.771 443.086
597 0 102.062 12.8353 1310 123.623 584.097 443.622
598 0 102.106 12.7612 1303 124.837 584.808 440.988
599 0 107.269 13.3123 1428 124.305 584.384 439.26
600 0 109.312 13.091 1431 123.587 584.231 437.758
601 1 61.3335 10.1902 625 112.762 584.872 464.048
602 0 62.2377 10.5081 654 111.893 584.726 461.209
603 0 64.1351 11.4914 737 108.373 584.303 456.273
604 0 66.123 11.5996 767 107.391 584.889 456.935
605 0 69.1194 11.9937 829 105.147 584.448 459.129
606 0 70.1593 11.4454 803 106.651 584.893 460.63
607 0 70.1101 10.9827 770 107.504 585.966 458.944
608 0 73.1169 10.2439 749 108.833 585.487 458.916
609 0 76.1978 10.5909 807 106.91 585.182 457.616
610 0 80.1028 12.2468 981 103.266 585.502 454.169
611 0 80.1545 10.7792 864 106.219 584.855 454.515
612 0 83.1226 10.5627 878 106.38 584.818 453.985
613 0 86.1165 10.8574 935 105.847 585.091 451.74
614 0 90.0668 12.3353 1111 102.319 584.923 448.681
615 0 93.2852 12.2099 1139 102.612 585.016 450.096
616 0 96.1666 12.2288 1176 103.167 585.026 448.881
617 0 97.0945 10.9584 1064 106.441 584.468 446.313
618 0 101.115 11.2941 1142 106.013 584.222 443.765
619 0 103.109 11.0369 1138 106.889 583.961 443.554
620 0 107.142 12.2268 1310 105.021 584.392 441.176
621 0 110.092 13.1072 1443 103.116 584.368 440.101
622 0 113.108 11.5464 1306 106.721 584.304 438.845
623 0 121.06 13.2166 1600 106.511 583.336 435.926
624 1 67.0441 11.1121 745 100.438 584.672 462.562
625 0 71.0298 11.0095 782 99.9744 584.453 461.004
626 0 75.0568 11.8044 886 98.2506 584.308 460.258
627 0 76.0708 11.0423 840 99.4321 584.381 460.917
628 0 79.1454 11.2451 890 100.322 584.398 457.838
629 0 82.1375 11.286 927 101.127 583.603 455.278
630 0 85.1789 11.6696 994 102.056 584.252 452.731
631 0 90.1134 12.1736 1097 100.602 583.947 452.206
632 0 91.0909 11.3074 1030 102.62 584.334 450.173
633 0 95.1798 12.1244 1154 100.587 584.118 449.99
634 0 97.211 12.0562 1172 102.28 584.211 445.666
635 0 101.104 11.2062 1133 103.147 584.008 444.625
636 0 104.177 11.7205 1221 103.096 584.123 444.665
637 0 108.271 11.3142 1225 104.047 584.358 440.665
638 0 113.147 12.0639 1365 103.823 583.956 437.631
639 0 116.163 11.966 1390 104.065 583.927 436.654
640 0 121.14 12.1677 1474 103.598 584.4 435.134
641 0 125.14 10.2286 1280 108.173 583.928 431.302
642 0 131.196 10.8388 1422 107.224 583.956 431.84
643 0 134.166 11.061 1484 110.076 584.027 429.362
644 0 139.197 12.5146 1742 106.959 584.267 428.103
645 0 144.127 12.9885 1872 106.846 584.236 424.904
646 0 149.414 12.6361 1888 108.307 584.88 424.529
647 0 147.208 10.8486 1597 113.188 584.626 421.804
648 0 146.228 7.44045 1088 114.65 584.562 437.043
649 1 92.2456 11.5886 1069 108.286 584.363 450.953
650 0 94.1218 12.9832 1222 106.846 585.542 447.336
651 0 96.0912 12.6859 1219 108.147 584.853 446.117
652 0 95.1124 10.6716 1015 114.035 584.74 444.375
653 0 100.133 11.7844 1180 111.68 585.086 445.125
654 0 104.153 12.3569 1287 112.007 585.006 442.268
655 0 108.107 12.0344 1301 110.377 583.961 443.254
656 1 200.252 10.2771 2058 116.975 583.648 404.957
657 1 159.253 11.9244 1899 113.345 584.557 420.373
658 0 163.284 11.5137 1880 115.248 584.276 418.719
659 0 169.244 11.5632 1957 116.754 584.643 415.957
660 1 130.191 11.4448 1490 116.003 584.767 433.821
661 0 129.195 11.8425 1530 116.559 585.173 429.176
662 0 134.159 11.8666 1592 116.369 584.696 430.349
663 0 139.243 12.8193 1785 115.342 584.612 427.95
664 0 143.221 12.149 1740 117.864 584.827 422.15
665 0 148.299 12.4478 1846 118.301 584.226 418.768
666 0 152.184 12.1564 1850 120.82 585.027 417.433
667 0 158.365 13.3552 2115 118.458 584.617 415.861
668 0 164.39 12.3487 2030 121.227 585.21 413.029
669 0 169.353 12.6068 2135 121.326 585.258 411.709
670 0 177.178 12.6483 2241 121.963 585.146 408.546
671 0 183.427 12.6263 2316 122.529 585.495 404.874
672 0 189.367 13.0804 2477 122.792 584.81 400.525
673 0 196.348 13.1094 2574 122.61 584.491 403.124
674 1 147.266 11.2789 1661 125.8 584.582 423.097
675 0 153.202 12.3889 1898 123.965 585.04 421.518
676 0 160.245 11.9255 1911 125.651 584.446 413.741
677 0 166.189 10.9995 1828 125.591 585.132 415.165
678 0 172.205 12.9322 2227 122.242 585.076 411.189
679 0 179.252 11.8492 2124 126.073 584.82 404.549
680 0 186.226 11.776 2193 126.72 585.821 400.278
681 0 194.279 11.7099 2275 125.907 585.027 395.557
682 0 202.295 11.8985 2407 125.51 585.937 394.657
683 0 209.458 12.0406 2522 125.104 584.908 391.157
684 0 216.291 12.3676 2675 124.504 584.982 382.062
685 0 223.441 11.9539 2671 123.712 585.283 386.458
686 0 233.265 14.177 3307 119.192 585.64 378.051
687 1 173.239 11.9661 2073 121.013 586.317 410.057
688 0 177.25 11.8815 2106 120.707 586.139 407.291
689 1 62.0635 9.32915 579 104.24 586.036 459.561
690 0 64.1334 9.46465 607 99.7446 587.028 456.96
691 0 69.0532 10.7743 744 105.118 586.105 459.56
692 0 69.133 10.5304 728 102.202 586.515 460.486
693 0 71.1144 10.7995 768 103.966 586.225 458.06
694 0 81.2948 14.023 1140 92.2246 585.974 452.446
695 0 79.1945 12.6524 1002 98.6397 586.178 453.04
696 0 83.2586 13.8244 1151 96.1868 585.546 451.301
697 0 83.1537 10.7632 895 104.485 585.931 451.657
698 0 89.1002 12.7385 1135 100.124 586.311 449.712
699 0 89.2209 11.6452 1039 104.418 586.422 448.024
700 0 92.2589 12.324 1137 103.791 586.555 450.595
701 0 97.0841 13.2668 1288 101.719 586.098 446.859
702 0 100.207 13.1927 1322 104.122 586.354 445.44
703 0 106.291 11.5626 1229 109.015 585.782 440.902
704 0 106.366 11.7237 1247 109.163 585.921 441.061
705 0 112.257 11.7677 1321 116.552 586.505 437.893
706 0 113.313 12.3905 1404 116.168 585.603 437.595
707 0 117.11 12.1852 1427 109.626 586.01 435.816
708 0 122.223 12.3872 1514 108.068 586.836 435.588
709 0 126.253 11.366 1435 110.045 585.946 435.911
710 1 67.091 12.2073 819 103.175 586.792 460.692
711 0 68.1042 12.0404 820 103.802 586.795 462.585
712 0 70.0902 12.1986 855 103.97 586.899 459.289
713 0 73.0953 12.2443 895 104.032 587.774 458.524
714 0 73.0735 12.0427 880 104.978 587.641 456.922
715 0 76.1144 12.9936 989 103.838 587.532 455.556
716 0 82.0967 13.8739 1139 99.9579 586.59 453.883
717 0 80.1444 13.2636 1063 102.964 586.532 455.308
718 0 84.1859 13.2445 1115 103.061 587.187 452.934
719 0 83.1034 12.1054 1006 105.507 587.368 453.389
720 0 92.073 15.2705 1406 97.9908 587.014 448.151
721 0 94.077 15.0728 1418 98.9133 587.09 446.341
722 0 91.1716 12.6794 1156 107.686 586.861 446.931
723 0 96.1408 12.929 1243 108.292 586.891 446.807
724 0 99.1868 12.5622 1246 114.02 586.921 444.742
725 0 101.113 12.9459 1309 113.571 587.23 442.65
726 0 104.089 11.9705 1246 116.326 587.048 439.849
727 0 108.158 14.2385 1540 109.497 586.782 438.018
728 0 111.203 13.5338 1505 111.258 585.714 436.005
729 0 115.204 13.2981 1532 111.868 585.993 435.999
730 0 117.163 13.7244 1608 111.609 585.929 434.001
731 0 119.118 12.0636 1437 114.896 585.404 433.436
732 0 125.229 14.3258 1794 109.899 585.963 428.225
733 0 129.193 12.8799 1664 113.473 586.357 428.46
734 1 70.0537 11.1771 783 107.659 586.808 458.019
735 0 73.0739 11.7005 855 100.949 585.495 454.989
736 0 75.0954 11.4122 857 104.725 585.634 456.627
737 0 79.0763 11.8367 936 102.815 585.324 455.502
738 0 80.0991 11.6231 931 103.887 585.014 454.771
739 0 85.09 12.998 1106 101.35 585.536 452.267
740 0 88.1046 13.5861 1197 100.442 584.84 449.139
741 0 92.0666 12.5127 1152 106.698 586.102 448.137
742 0 94.1892 13.9613 1315 105.488 585.495 447.189
743 0 96.1269 11.7865 1133 109.718 585.985 447.139
744 0 99.1016 11.8464 1174 108.842 585.63 442.401
745 0 103.143 12.7977 1320 105.838 585.561 443.193
746 0 107.047 12.6953 1359 106.327 585.341 443.346
747 0 109.193 12.9221 1411 105.724 585.29 440.762
748 0 114.125 13.8796 1584 104.937 584.84 438.663
749 1 64.1214 11.9149 764 103.442 585.619 464.958
750 0 66.0485 12.4757 824 107.472 585.593 461.984
751 0 68.0667 12.3555 841 107.564 585.732 462.275
752 0 70.0803 13.984 980 107.204 585.485 455.895
753 0 73.1017 13.9395 1019 107.527 585.964 458.264
754 0 75.1466 13.813 1038 108.387 585.48 455.517
755 0 79.0556 14.4961 1146 106.133 585.764 455.27
756 0 81.0963 13.9094 1128 107.916 586.09 455.566
757 0 80.1732 12.8347 1029 112.005 585.859 454.212
758 0 85.0587 13.8022 1174 109.911 585.748 451.412
759 0 85.1065 12.5137 1065 114.411 585.346 449.653
760 0 89.0477 14.0262 1249 110.565 585.238 450.069
761 0 93.2684 13.4772 1257 111.054 585.387 449.387
762 0 93.1561 13.0319 1214 114.177 586.471 447.282
763 0 98.1118 14.351 1408 110.799 585.104 444.455
764 0 101.125 13.6465 1380 112.747 585.56 442.728
765 0 104.202 14.0304 1462 111.094 585.449 443.923
766 0 106.146 13.1516 1396 113.582 584.179 440.232
767 0 111.201 12.1222 1348 114.042 584.304 440.704
768 0 114.324 12.4733 1426 113.151 585.027 439.403
769 1 61.157 12.983 794 111.972 585.608 463.446
770 0 64.1853 12.8534 825 116.074 584.725 460.394
771 0 66.1612 13.0741 865 115.535 584.535 459.413
772 0 70.2661 13.762 967 114.311 584.796 457.52
773 0 73.215 13.6584 1000 114.006 584.235 456.007
774 0 74.1136 13.6007 1008 115.837 584.559 454.064
775 0 77.0862 13.9843 1078 115.99 585.543 453.31
776 0 81.1238 13.917 1129 116.062 585.374 453.632
777 0 84.2499 14.0059 1180 116.019 585.61 452.446
778 0 85.3536 13.696 1169 119.127 585.594 448.603
779 0 90.2039 14.057 1268 116.483 585.161 448.85
780 0 95.307 14.0388 1338 118.243 584.623 446.477
781 0 95.2373 13.9231 1326 120.37 585.239 442.83
782 0 99.1965 13.9219 1381 119.729 584.935 443.189
783 0 103.245 14.422 1489 119.43 585.077 439.761
784 0 106.287 14.4796 1539 119.834 585.383 438.506
785 0 109.15 13.596 1484 122.819 585.552 436.347
786 0 113.303 15.1364 1715 119.711 585.904 434.555
787 0 117.271 14.7351 1728 120.174 585.494 432.305
788 0 121.169 14.0217 1699 122.19 586.245 432.753
789 0 126.136 13.0494 1646 125.501 585.474 428.166
790 0 135.522 16.4401 2228 116.894 586.044 426.137
791 0 139.568 14.9246 2083 110.065 585.609 425.383
792 1 78.7912 13.8086 1088 116.878 585.407 452.321
793 0 78.2021 13.8999 1087 121.4 586.384 451.237
794 0 82.099 13.3863 1099 124.231 585.383 446.161
795 0 84.0949 13.7702 1158 123.053 585.211 446.793
796 0 87.1344 13.2783 1157 125.016 584.987 443.962
797 0 90.1228 14.7576 1330 120.992 585.073 443.886
798 0 92.1285 13.7634 1268 124.926 586.304 441.9
799 0 95.1722 13.733 1307 126.461 585.211 437.679
800 0 98.1504 14.8649 1459 124.153 586.023 437.933
801 0 102.163 13.9091 1421 127.011 585.471 437.414
802 0 105.356 14.2944 1506 126.815 585.319 436.276
803 0 108.076 14.5545 1573 127.971 585.095 431.805
804 0 113.161 14.3778 1627 128.351 585.075 429.252
805 0 116.11 13.7886 1601 129.953 584.502 430.364
806 0 121.118 14.5726 1765 129.147 584.362 425.216
807 0 129.287 16.6529 2153 121.484 584.803 421.916
808 0 131.163 14.5392 1907 128.93 583.96 421.362
809 0 134.257 14.1594 1901 130.435 584.803 419.235
810 0 140.21 14.4141 2021 129.338 584.122 414.576
811 0 146.127 13.8031 2017 129.799 584.89 413.357
812 0 152.29 14.2885 2176 127.659 584.004 410.256
813 0 159.134 13.6301 2169 132.854 584.42 404.987
814 0 168.298 14.9378 2514 130.728 584.566 408.004
815 1 98.2196 12.4211 1220 125.375 584.406 441.475
816 0 101.128 11.6684 1180 121.069 584.249 440.069
817 0 104.089 11.1731 1163 121.106 584.586 438.119
818 0 109.141 13.1207 1432 114.948 584.346 438.048
819 0 112.21 12.9311 1451 114.314 584.387 435.059
820 0 117.065 11.7029 1370 116.425 583.977 433.534
821 1 12.0011 4.08297 49 93.0816 585.306 485.082
822 0 15.0054 5.9312 89 89.1461 584.663 486.629
823 0 16.0036 4.37402 70 90.7571 584.957 485.2
824 0 13.0032 2.99926 39 91.4872 585.769 487.769
825 0 11.0039 5.99786 66 87.6061 584.864 487.561
826 0 15.0952 6.29339 95 87.1053 585.368 487.537
827 0 13.0211 6.06706 79 88.3291 585.772 486.924
828 0 12.0008 7.33286 88 88.8523 584.75 485.023
829 0 18.038 6.7635 122 88.4016 585.328 485.23
830 0 16.037 6.48501 104 90.5385 585.856 483.933
831 0 17.0387 4.22568 72 93.9306 584.583 484.167
832 1 183.185 13.1671 2412 119.426 584.246 396.976
833 0 187.234 11.985 2244 122.924 584.077 395.541
834 0 195.319 12.2671 2396 124.079 582.661 389.712
835 0 203.226 12.1293 2465 125.542 582.923 385.305
836 0 209.507 12.6726 2655 125.713 584.471 380.5
837 0 218.386 12.7297 2780 126.194 584.313 377.273
838 0 227.522 14.0778 3203 122.575 584.845 376.672
839 0 233.338 12.7454 2974 125.867 584.743 372.363
840 1 58.0906 9.89833 575 106.877 586.29 460.883
841 0 59.0257 9.11467 538 108.565 586.329 458.66
842 0 60.1058 9.03407 543 102.891 584.694 463.632
843 0 61.0967 9.24764 565 103.142 584.58 459.982
844 0 63.1077 10.4742 661 100.628 584.897 461.307
845 0 68.2565 9.80126 669 102.88 585.765 458.997
846 0 68.1332 9.46675 645 104.447 585.519 457.4
847 0 69.1261 8.85338 612 106.639 585.735 459.693
848 0 72.1257 10.6342 767 105.747 585.758 455.67
849 0 77.1093 11.3346 874 103.293 585.612 449.982
850 0 76.0657 11.0036 837 105.971 585.619 453.927
851 0 76.0637 9.47889 721 110.968 584.831 450.27
852 0 78.1122 9.84482 769 110.609 584.99 448.23
853 0 81.1059 10.8007 876 108.704 585.033 450.107
854 0 85.0532 12.0513 1025 107.004 585.568 447.672
855 0 107.21 15.7914 1693 88.0224 585.346 435.9
856 0 111.24 15.5339 1728 89.3142 584.858 435.943
857 0 109.113 16.9091 1845 87.9875 585.116 431.431
858 0 105.122 15.7246 1653 93.8887 584.773 431.866
859 0 104.166 14.1505 1474 101.686 585.185 436.512
860 0 110.35 17.1726 1895 89.0955 584.256 425.246
861 0 109.091 15.2534 1664 97.4724 584.639 432.119
862 0 112.237 13.5161 1517 105.819 584.323 433.071
863 0 112.172 11.0367 1238 113.039 584.059 435.831
864 0 113.299 12.6479 1433 110.274 584.616 431.454
865 0 111.19 10.4416 1161 112.493 584.754 428.002
866 0 108.161 11.2332 1215 112.045 584.837 429.657
867 1 83.192 13.4628 1120 91.5661 584.872 449.858
868 0 84.1778 15.3485 1292 90.2949 585.181 450.874
869 0 85.29 14.2103 1212 95.3548 585.584 451.365
870 0 93.3233 18.077 1687 84.7641 585.58 441.574
871 0 93.1894 15.5919 1453 93.287 585.184 447.928
872 0 93.1842 16.2045 1510 94.806 584.843 447.078
873 0 95.2386 14.7209 1402 99.7097 585.077 444.588
874 0 96.3144 15.1691 1461 100.504 585.458 445.153
875 0 96.2829 14.7482 1420 104.76 584.991 444.404
876 0 97.2229 12.9496 1259 109.929 585.298 446.614
877 0 101.233 14.2443 1442 107.744 584.585 442.338
878 0 103.246 13.9472 1440 110.212 584.633 439.562
879 0 107.253 13.5754 1456 112.816 584.891 440.016
880 0 111.27 14.1638 1576 110.501 584.804 437.652
881 0 113.296 13.2132 1497 112.15 585.887 435.229
882 0 115.196 12.8476 1480 111.332 585.101 436.106
883 0 119.171 13.2919 1584 110.029 584.813 432.821
884 1 71.351 11.4224 815 104.434 585.975 457.228
885 0 74.2474 11.125 826 103.288 585.226 457.505
886 0 75.1631 12.8254 964 98.5892 584.326 458.566
887 0 77.1632 11.6377 898 97.3497 585.009 456.414
888 0 79.0527 11.1698 883 98.2627 585.204 454.258
889 0 82.0219 12.2162 1002 95.9321 584.843 453.322
890 0 84.0973 10.5949 891 98.5859 584.71 451.664
891 0 86.1676 11.9186 1027 97.1801 584.754 448.77
892 0 88.0731 11.3088 996 98.4819 584.505 447.401
893 0 91.0943 10.5385 960 100.073 584.575 445.882
894 0 96.2624 11.1051 1069 99.5594 585.74 444.978
895 0 97.1943 10.5459 1025 101.021 585.995 443.165
896 0 104.305 11.4856 1198 99.6569 585.89 442.985
897 0 104.127 12.091 1259 101.329 585.464 438.902
898 0 110.091 13.2163 1455 100.001 585.438 437.702
899 0 112.189 13.192 1480 100.533 585.206 434.726
900 0 113.078 12.1243 1371 103.618 584.885 433.71
901 0 117.074 11.702 1370 104.25 585.594 432.024
902 0 118.082 10.5859 1250 108.115 585.473 427.546
903 0 125.117 10.662 1334 107.154 586.112 423.94
904 0 129.078 11.1018 1433 106.386 586.069 423.012
905 0 134.187 11.6628 1565 105.159 585.844 418.489
906 0 138.243 10.7564 1487 105.574 585.82 418.465
907 0 145.153 12.7108 1845 101.969 585.688 414.844
908 1 83.1869 9.09999 757 93.9273 585.62 454.284
909 0 87.3028 10.3662 905 98.1536 585.377 449.789
910 0 90.183 10.523 949 93.0896 585.561 447.704
911 0 93.1523 10.2735 957 93.8401 586.049 445.2
912 0 94.2085 8.88455 837 94.9259 586.243 446.983
913 0 98.1709 10.1659 998 94.4309 585.486 441.354
914 0 104.13 12.9934 1353 89.9364 585.481 441.465
915 0 107.26 11.9429 1281 92.0617 585.763 441.477
916 0 109.14 12.5619 1371 91.6375 585.888 440.966
917 0 112.267 11.0807 1244 96.3143 584.588 434.4
918 0 117.202 11.9623 1402 95.393 585.544 434.31
919 0 122.14 13.5336 1653 92.5965 584.55 430.51
920 0 122.122 12.1682 1486 96.8486 585.304 429.754
921 0 127.159 11.9614 1521 97.6423 584.859 428.985
922 0 132.209 12.0415 1592 97.9648 585.432 424.252
923 0 138.424 13.2709 1837 97.1802 585.379 422.715
924 0 143.101 13.473 1928 97.7178 585.635 421.832
925 0 148.178 12.6672 1877 100.051 585.449 421.944
926 0 153.2 12.2911 1883 102.623 585.365 416.203
927 1 88.1194 11.7454 1035 95.8077 584.761 453.775
928 0 89.0751 12.2593 1092 98.1438 585.679 449.006
929 0 89.0751 12.2593 1092 140.175 586.68 449.043
930 0 98.338 12.5587 1235 101.233 585.445 446.789
931 0 100.123 12.1551 1217 102.887 585.677 443.285
932 0 103.096 12.6096 1300 101.318 585.842 442.836
933 0 106.285 13.3509 1419 99.6166 585.529 440.175
934 0 112.128 12.3341 1383 100.623 585.15 439.281
935 0 114.208 12.2846 1403 100.661 585.799 437.244
936 0 117.203 11.9878 1405 100.104 584.941 432.649
937 0 121.187 12.5096 1516 99.219 584.778 430.951
938 0 123.204 11.063 1363 101.602 585.128 432.123
939 0 129.235 11.8621 1533 100.957 585.08 429.147
940 0 131.233 10.9804 1441 104.64 584.897 424.448
941 0 136.075 13.3749 1820 101.928 585.019 422.201
942 0 141.138 13.0581 1843 103.543 585.912 422.205
943 0 144.175 13.2201 1906 104.299 586.029 424.366
944 0 149.218 13.8589 2068 105.336 585.236 417.964
945 0 155.135 14.0652 2182 105.8 585.144 414.016
946 0 161.23 13.5459 2184 105.528 584.864 414.869
947 0 165.153 12.0797 1995 109.096 584.487 411.559
948 0 171.159 11.8077 2021 108.971 585.614 413.426
949 0 177.319 13.8169 2450 102.878 584.908 404.737
950 1 80.0916 12.0113 962 102.018 584.512 451.769
951 0 84.0567 12.8366 1079 103.064 585.095 451.208
952 0 89.107 13.3547 1190 102.629 585.268 448.685
953 0 92.0996 14.4952 1335 101.089 585.853 448.301
954 0 93.1254 12.51 1165 105.551 585.298 448.088
955 0 97.169 13.5023 1312 104.911 585.072 443.202
956 0 98.045 13.0144 1276 106.36 585.205 444.259
957 0 105.179 14.6321 1539 102.794 585.332 442.311
958 0 106.151 13.7916 1464 105.533 585.536 438.307
959 0 108.36 12.44 1348 108.513 585.149 437.42
960 0 114.189 15.0452 1718 102.388 584.83 435.733
961 0 117.282 14.3927 1688 104.12 585.058 431.457
962 0 121.22 13.5952 1648 104.498 585.463 432.541
963 0 125.264 14.186 1777 103.187 586.129 433.425
964 0 129.128 13.0413 1684 104.928 585.981 433.911
965 0 133.124 12.9429 1723 106.593 585.634 426.002
966 0 140.15 14.7414 2066 101.658 585.56 427.395
967 1 63.0622 12.8445 810 102.852 585.848 461.059
968 0 65.0277 13.2251 860 102.771 585.7 459.101
969 0 71.0763 13.4503 956 104.417 585.893 457.858
970 0 73.0508 14.4557 1056 102.746 585.742 456.362
971 0 75.1286 13.4303 1009 105.332 585.599 456.475
972 0 78.119 13.8635 1083 104.489 585.848 455.044
973 0 80.1577 14.5463 1166 104.343 586.123 453.561
974 0 82.1318 13.7097 1126 106.735 585.336 450.706
975 0 87.091 14.7317 1283 104.819 585.313 449.45
976 0 88.0858 13.7934 1215 107.518 584.744 448.449
977 0 92.0665 13.9356 1283 108.069 585.27 446.655
978 0 96.1211 15.3348 1474 106.165 585.061 442.757
979 0 100.106 14.2649 1428 108.189 585.279 444.56
980 0 103.166 14.152 1460 109.225 585.188 441.569
981 0 106.245 14.7395 1566 107.993 585.091 442.159
982 0 110.116 14.8207 1632 108.148 584.837 436.244
983 0 114.126 14.0196 1600 109.568 585.481 436.998
984 0 118.187 14.0455 1660 109.246 585.422 435.971
985 0 123.178 14.0447 1730 109.228 585.231 433.961
986 1 72.0537 13.9896 1008 108.793 585.362 457.16
987 0 73.0833 13.0536 954 110.085 585.569 457.704
988 0 75.1046 14.9658 1124 107.271 585.523 455.093
989 0 79.0594 14.2172 1124 107.639 585.702 454.826
990 0 81.0851 13.381 1085 108.6 585.272 455.736
991 0 85.1132 14.4983 1234 106.976 585.592 453.108
992 0 87.0852 14.2504 1241 108.668 584.59 452.24
993 0 89.143 14.4824 1291 108.707 585.197 450.003
994 0 92.1641 13.9425 1285 110.067 584.798 447.373
995 0 97.3342 14.6814 1429 108.879 585.601 447.211
996 0 100.165 14.3662 1439 111.191 585.593 444.951
997 0 101.152 14.7699 1494 111.69 585.756 443.841
998 0 106.086 15.0162 1593 111.216 586.2 442.107
999 0 108.222 13.4169 1452 116.105 585.892 440.242
1000 0 111.127 13.867 1541 116.472 586.696 438.103
1001 0 117.305 15.14 1776 112.839 586.288 435.493
1002 0 122.171 14.9872 1831 112.9 586.095 432.958
1003 0 127.284 14.5659 1854 115.345 585.509 430.018
1004 1 72.1986 12.4241 897 114.175 585.517 457.906
1005 0 75.1805 13.8733 1043 109.929 585.685 456.994
1006 0 77.1505 13.9079 1073 110.726 585.132 453.976
1007 0 81.2256 14.5151 1179 108.848 585.361 454.142
1008 0 82.0963 13.8252 1135 111.708 585.732 451.394
1009 0 85.1608 13.2338 1127 113.674 585.61 449.048
1010 0 90.1843 14.548 1312 110.478 585.739 448.826
1011 0 94.1719 14.9195 1405 110.233 586.561 447.45
1012 0 96.1237 13.9404 1340 112.881 585.831 446.546
1013 0 100.233 14.3267 1436 113.92 585.754 444.677
1014 0 103.136 13.9718 1441 115.83 585.799 443.528
1015 0 105.14 13.7722 1448 118.61 586.078 440.702
1016 0 111.492 14.0548 1567 117.569 585.72 439.547
1017 0 114.421 13.7562 1574 119.656 585.982 435.633
1018 0 117.315 14.3545 1684 118.979 585.629 435.244
1019 0 123.294 14.8264 1828 118.202 585.892 433.483
1020 0 128.292 13.8278 1774 120.802 585.334 430.32
1021 0 131.201 14.8856 1953 119.806 587.204 428.304
1022 0 138.237 15.4517 2136 117.26 586.536 428.702
1023 0 143.281 15.0892 2162 120.755 585.879 422.476
1024 0 149.36 14.8099 2212 122.114 586.197 421.782
1025 0 154.224 15.27 2355 121.823 585.834 418.817
1026 1 88.0997 13.8706 1222 121.204 586.721 451.974
1027 0 90.1876 13.7048 1236 123.15 586.306 448.768
1028 0 92.1602 13.661 1259 124.111 586.496 447.998
1029 0 96.1709 13.7256 1320 124.458 586.055 445.829
1030 0 101.146 14.8498 1502 121.399 586.033 442.56
1031 0 104.128 15.404 1604 120.512 586.245 442.315
1032 0 107.183 15.049 1613 122.249 586.163 438.953
1033 0 111.139 14.4144 1602 123.564 586.428 439.014
1034 0 115.113 14.7074 1693 123.457 586.014 435.774
1035 0 119.102 14.5254 1730 124.78 586.264 431.634
1036 0 124.446 14.4802 1802 124.639 586.262 430.968
1037 0 129.227 14.4242 1864 125.785 585.7 429.504
1038 1 74.0965 14.1437 1048 123.46 586.286 455.553
1039 0 76.1492 13.513 1029 125.764 585.88 454.472
1040 0 79.2398 15.4215 1222 122.737 585.677 451.572
1041 0 83.0844 14.5755 1211 124.149 586.05 451.523
1042 0 86.2044 14.396 1241 126.757 586.118 448.971
1043 0 90.0711 15.2435 1373 124.626 586.004 448.802
1044 0 93.1673 15.6922 1462 123.549 585.848 447.185
1045 0 96.1307 16.0511 1543 123.83 585.082 442.981
1046 0 98.2438 14.6472 1439 128.91 586.329 443.04
1047 0 100.077 15.4482 1546 129.092 585.872 439.829
1048 0 105.188 15.2774 1607 128.612 585.533 439.171
1049 0 109.098 15.5823 1700 127.506 585.157 436.758
1050 0 114.158 16.486 1882 124.56 585.145 437.463
1051 0 116.294 15.0824 1754 129.645 585.008 433.192
1052 0 120.282 14.8816 1790 130.065 585.178 430.706
1053 0 128.239 15.627 2004 126.002 585.28 431.346
1054 0 132.259 14.6833 1942 128.07 584.899 428.542
1055 0 137.222 15.7774 2165 123.906 585.304 424.573
1056 0 143.151 15.2007 2176 125.016 585.674 421.924
1057 0 147.18 14.7642 2173 128.315 585.919 421.194
1058 1 80.2216 15.5818 1250 126.547 585.685 453.772
1059 0 82.204 16.2158 1333 126.063 585.761 450.735
1060 0 84.2404 16.2036 1365 126.115 586.178 450.601
1061 0 88.1369 15.9751 1408 127.554 586.109 447.729
1062 0 91.2021 15.3834 1403 129.955 585.998 446.568
1063 0 93.1763 15.8731 1479 129.721 585.495 443.267
1064 0 96.3144 14.7953 1425 132.011 585.658 444.138
1065 0 99.1656 16.9615 1682 127.615 585.118 440.124
1066 0 102.198 15.4797 1582 131.131 585.76 440.545
1067 0 105.284 15.6339 1646 131.078 585.384 436.757
1068 0 110.292 15.8306 1746 129.837 585.222 434.713
1069 0 113.305 14.2448 1614 133.564 585.921 433.983
1070 0 116.394 15.3187 1783 131.335 585.337 429.808
1071 0 124.106 15.7527 1955 128.247 585.101 429.386
1072 0 127.222 15.9014 2023 128.758 585.637 424.416
1073 0 131.407 15.6841 2061 129.097 585.972 422.196
1074 0 136.312 14.7602 2012 131 585.919 422.551
1075 0 142.442 15.487 2206 128.373 585.783 420.24
1076 0 147.17 14.7109 2165 132.059 586.284 415.728
1077 0 154.292 15.7753 2434 128.877 585.712 411.878
1078 1 85.2461 14.1355 1205 132.149 587.134 446.131
1079 0 88.2748 14.2283 1256 133.315 586.976 443.297
1080 0 93.1414 15.5677 1450 129.875 586.826 440.229
1081 0 95.2756 14.3898 1371 132.95 587.212 438.329
1082 0 101.174 14.9643 1514 130.761 586.768 437.326
1083 0 104.296 14.4109 1503 132.476 586.939 435.047
1084 0 108.232 14.5521 1575 133.227 587.806 431.895
1085 0 113.277 15.4666 1752 129.831 587.365 431.265
1086 0 116.213 15.0929 1754 131.96 587.646 428.204
1087 0 120.166 15.3705 1847 131.024 586.923 425.692
1088 0 126.4 16.1471 2041 128.36 587.68 423.587
1089 0 129.134 15.3484 1982 132.754 587.213 419.961
1090 0 134.276 14.7383 1979 133.792 586.891 420.129
1091 0 143.421 16.1273 2313 129.316 586.82 418.092
1092 0 147.251 15.5789 2294 132.235 587.185 413.218
1093 0 151.271 16.4869 2494 130.989 586.181 409.478
1094 0 158.322 16.1064 2550 131.173 586.27 406.799
1095 0 162.381 15.0941 2451 135.139 586.678 407.279
1096 0 168.344 15.106 2543 135.618 586.169 400.497
1097 0 174.391 16.1935 2824 132.731 585.836 399.329
1098 0 180.657 14.9565 2702 136.715 586.495 396.655
1099 0 187.355 15.7776 2956 134.527 585.961 392.263
1100 0 193.227 15.6759 3029 134.875 586.106 388.51
1101 0 202.38 16.1923 3277 133.196 586.121 386.265
1102 0 207.447 15.1412 3141 137.081 586.648 381.654
1103 0 218.471 16.9176 3696 131.083 586.563 376.875
1104 0 226.474 15.706 3557 135.533 586.219 372.468
1105 1 65.1215 7.20192 469 122.667 586.631 456.345
1106 0 67.415 8.29193 559 119.93 586.869 456.322
1107 0 66.3239 10.2527 680 116.547 587.374 454.103
1108 0 64.0951 10.7028 686 119.431 586.981 451.636
1109 0 67.2257 11.9597 804 117.328 587.254 452.495
1110 0 69.3831 11.6311 807 116.781 586.813 452.938
1111 0 72.3588 12.0234 870 116.369 587.206 450.602
1112 0 73.2161 10.6944 783 120.59 587.492 448.662
1113 0 80.2828 12.7549 1024 114.705 586.933 447.493
1114 0 81.3084 12.016 977 117.051 587.034 445.523
1115 0 83.2803 11.9716 997 117.531 586.761 443.994
1116 0 82.1579 10.3824 853 122.61 586.821 441.667
1117 0 88.127 11.5515 1018 119.088 586.672 441.764
1118 0 92.2058 13.112 1209 115.94 586.527 439.54
1119 0 94.1611 12.9034 1215 116.023 586.109 437.398
1120 0 99.2607 12.3009 1221 117.111 586.814 438.061
1121 0 102.332 12.4595 1275 115.696 586.561 435.57
1122 0 104.32 11.9057 1242 116.019 586.75 434.14
1123 0 108.291 12.3741 1340 111.994 587.53 431.463
1124 0 113.43 12.1661 1380 111.66 586.94 432.679
1125 0 117.418 12.4001 1456 111.952 586.233 430.514
1126 0 120.312 11.8857 1430 114.151 586.315 425.866
1127 0 125.291 12.3712 1550 112.874 586.262 424.963
1128 0 129.269 11.975 1548 112.828 585.888 425.202
1129 1 78.1636 11.7574 919 113.709 586.17 447.521
1130 0 78.2432 11.1831 875 117.08 586.339 446.845
1131 0 82.127 12.8216 1053 112.498 586.498 444.539
1132 0 84.3105 13.1419 1108 111.111 585.911 443.468
1133 0 86.1655 13.3116 1147 111.934 586.084 442.31
1134 0 91.1413 14.2745 1301 109.812 586.58 440.809
1135 0 92.2532 12.8451 1185 115.109 586.465 441.369
1136 0 94.1982 13.4398 1266 114.026 586.783 441.939
1137 0 97.2054 12.4067 1206 118.129 586.536 437.439
1138 0 100.157 13.9781 1400 114.696 586.872 436.197
1139 0 103.214 13.845 1429 115.493 586.077 434.391
1140 0 105.201 13.5359 1424 117.415 586.522 436.958
1141 0 110.157 13.971 1539 116.801 586.771 435.143
1142 0 112.163 13.9172 1561 118.45 586.643 431.724
1143 0 116.177 15.089 1753 115.927 587.558 431.657
1144 0 117.203 13.1907 1546 123.285 586.932 429.529
1145 0 124.193 13.793 1713 122.062 586.535 427.681
1146 0 125.199 13.7541 1722 124.635 586.975 425.052
1147 0 127.164 13.3764 1701 126.966 587.526 424.247
1148 0 130.222 14.2449 1855 125.009 586.857 424.41
1149 0 133.085 14.6598 1951 125.208 586.752 423.041
1150 0 138.266 14.7759 2043 125.521 586.774 419.577
1151 0 143.111 15.3727 2200 124.753 586.849 415.523
1152 0 146.218 14.5536 2128 128.067 587.496 414.962
1153 0 148.285 15.5242 2302 126.679 587.166 414.94
1154 0 152.227 15.0499 2291 128.438 587.78 414.874
1155 0 155.124 15.0654 2337 129.299 587.764 411.804
1156 0 157.274 14.8467 2335 131.666 587.609 409.884
1157 0 161.186 14.7221 2373 132.953 586.901 405.456
1158 0 167.249 15.7071 2627 130.111 586.914 405.533
1159 0 169.19 14.2916 2418 136.392 587.481 401.485
1160 0 175.171 15.973 2798 131.95 587.047 401.016
1161 0 181.251 15.5254 2814 133.998 587.186 396.488
1162 0 180.14 15.5157 2795 137.405 587.119 393.696
1163 0 186.21 15.4288 2873 137.621 586.928 393.046
1164 0 188.245 15.9845 3009 137.026 586.749 392.313
1165 0 195.242 15.427 3012 139.725 586.958 387.788
1166 0 204.18 17.7686 3628 130.371 586.595 388.598
1167 0 206.198 15.4366 3183 139.878 587.353 382.211
1168 0 214.294 16.7527 3590 135.973 587.175 378.213
1169 0 220.301 16.2551 3581 137.631 587.216 375.115
1170 0 229.36 17.139 3931 134.299 586.55 371.087
1171 0 233.259 15.8707 3702 139.431 587.223 369.049
1172 0 240.269 14.8875 3577 143.406 586.715 363.951
1173 0 249.334 15.754 3928 140.576 586.766 357.278
1174 0 258.382 15.4113 3982 141.39 586.191 351.478
1175 0 267.367 16.367 4376 137.935 586.145 349.489
1176 0 274.34 15.5282 4260 140.484 586.568 348.992
1177 0 284.433 16.8511 4793 137.318 586.193 335.68
1178 0 294.398 15.6251 4600 141.171 586.383 332.547
1179 1 210.166 12.7994 2690 145.334 586.669 377.406
1180 0 218.29 13.899 3034 142.909 586.474 374.431
1181 0 228.43 14.0174 3202 141.457 586.768 371.353
1182 0 235.342 14.6213 3441 140.678 587.201 361.498
1183 0 244.377 14.6986 3592 139.807 586.691 360.86
1184 0 253.374 14.3661 3640 140.468 586.419 359.018
1185 0 260.427 13.8925 3618 142.793 586.363 350.338
1186 0 267.359 13.6932 3661 143.528 586.149 348.592
1187 0 278.465 13.5672 3778 143.233 586.249 345.485
1188 0 287.474 13.6708 3930 143.007 586.37 339.718
1189 1 88.1362 8.15783 719 125.43 586.63 441.566
1190 0 93.3654 11.7388 1096 118.736 586.082 441.293
1191 0 95.0688 10.4451 993 121.897 585.89 437.697
1192 0 98.2389 11.0547 1086 121.309 586.406 436.956
1193 0 98.0624 10.891 1068 123.282 586.643 433.488
1194 0 104.177 11.4997 1198 119.846 586.093 436.53
1195 0 106.202 11.9207 1266 119.979 585.611 433.111
1196 0 108.105 12.4231 1343 119.397 586.065 433.443
1197 0 110.114 12.4144 1367 119.173 586.338 433.878
1198 0 113.16 11.8858 1345 120.059 586.359 432.318
1199 0 117.293 12.3963 1454 119.523 586.538 426.935
1200 0 119.163 12.7389 1518 117.935 586.022 427.416
1201 0 121.226 12.2004 1479 119.02 586.462 429.685
1202 1 86.1466 10.7839 929 121.419 586.916 443.513
1203 0 85.2029 10.4339 889 123.288 587.232 444.522
1204 0 90.1831 11.3214 1021 118.108 587.118 446.001
1205 1 32.1451 7.52836 242 98.4917 587.281 477.066
1206 0 31.1717 8.24467 257 97.4591 587.171 476.272
1207 0 26.0731 5.86812 153 103.327 586.778 476
1208 0 30.0534 8.3518 251 97.8128 587.271 477.749
1209 0 30.127 7.23603 218 100.041 587.94 478.982
1210 0 30.0503 8.28611 249 98.7309 588.221 477.803
1211 0 32.0776 10.537 338 92.5178 587.822 477.743
1212 0 31.0168 7.99565 248 97.6653 587.843 478.016
1213 0 33.0301 9.90005 327 93.0092 587.896 477.416
1214 0 31.0068 9.32053 289 95.3599 588.197 477.879
1215 0 32.05 7.73791 248 95.7177 588.601 479.298
1216 0 31.0205 7.8013 242 97.8802 587.533 478.041
1217 0 30.0513 8.25255 248 98.1008 588.484 476.569
1218 0 32.0059 8.56093 274 95.1752 586.818 477.139
1219 0 33.0942 8.00745 265 95.0189 586.449 479.125
1220 0 33.0555 8.71261 288 94.4826 588.024 479.385
1221 0 30.0089 8.99734 270 95.8926 588.23 477.063
1222 0 29.0116 6.92825 201 97.0696 587.702 480.577
1223 0 33.0251 9.05372 299 92.8595 587.956 477.338
1224 0 32.0116 8.34073 267 95.7678 588.285 478.247
1225 1 130.299 12.9548 1688 122.318 587.197 425.424
1226 0 131.306 13.6018 1786 121.05 586.553 423.665
1227 0 136.225 13.6905 1865 119.868 586.972 424.487
1228 1 32.0076 9.46651 303 92.1914 586.934 478
1229 0 33.0218 9.50887 314 92.9682 587.099 476.602
1230 0 32.041 8.95728 287 93.4808 587.404 477.558
1231 0 30.0272 8.45901 254 94.2244 588.26 477.602
1232 0 31.0197 8.44624 262 93.4542 588.431 478.622
1233 0 31.0056 8.7081 270 93.5778 588.174 476.852
1234 0 31.0321 8.31397 258 92.4302 588.012 478.864
1235 0 35.0261 9.96401 349 88.0229 587.613 475.032
1236 0 34.028 7.84648 267 91.3933 587.753 476.045
1237 0 35.0283 10.1061 354 87.226 587.963 474.494
1238 0 35.088 8.57843 301 90.1296 588.455 475.369
1239 0 34.0294 10.4028 354 85.9153 587.466 475.136
1240 0 35.0988 8.60429 302 88.8477 587.93 474.308
1241 0 36.0263 9.9372 358 86.4721 587.704 474.729
1242 0 35.0608 8.75622 307 87.5766 587.564 472.909
1243 0 34.0273 9.19849 313 88.508 587.815 474.463
1244 1 51.1719 7.34779 376 94.492 587.439 466.926
1245 0 49.124 8.34623 410 93.3732 588.185 468.161
1246 0 52.0975 9.23269 481 90.921 587.43 467.027
1247 1 153.254 11.3537 1740 113.703 587.247 409.507
1248 0 156.445 10.4893 1641 116.232 587.424 407.642
1249 0 160.243 11.7447 1882 112.784 587.113 407.115
1250 0 163.431 11.589 1894 114.285 587.208 401.482
1251 0 167.374 10.6229 1778 116.313 586.675 401.009
1252 0 172.303 11.9673 2062 113.701 586.866 401.25
1253 0 175.202 11.7807 2064 115.17 586.803 398.379
1254 0 180.299 12.3739 2231 114.314 586.254 394.644
1255 0 184.254 13.5845 2503 111.829 586.692 391.928
1256 0 188.294 11.5458 2174 117.139 586.595 392.324
1257 0 194.488 12.1807 2369 117.23 586.793 384.837
1258 1 70.1717 5.81431 408 92.973 588.002 460.738
1259 0 66.0656 9.68734 640 87.9953 588.169 457.234
1260 0 72.1537 7.31772 528 90.0492 587.65 461.763
1261 0 65.1119 6.72688 438 90.8059 587.377 463.854
1262 0 69.2009 5.31785 368 91.4755 588.663 465.209
1263 0 72.1376 7.38866 533 90.2045 588.923 457.865
1264 0 70.159 5.50179 386 92.5052 588.259 460.816
1265 0 64.0865 3.86977 248 93.0323 587.605 469.528
1266 0 75.1626 7.84964 590 89.2847 587.795 455.759
1267 0 73.0457 3.79215 277 90.3863 586.866 470.274
1268 0 73.0253 4.97088 363 89.2066 587.683 468.457
1269 1 257.334 11.3393 2918 126.755 587.268 345.826
1270 0 263.817 12.5731 3317 126.211 587.431 347.67
1271 1 48.0385 8.90952 428 87.236 588.661 464.47
1272 0 50.0199 8.47663 424 87.441 588.498 465.717
1273 0 49.045 6.64696 326 89.3006 587.991 465.954
1274 0 49.0354 8.25934 405 87.3185 588.178 462.58
1275 0 48.1058 8.29423 399 87.5664 588.642 466.596
